#   1 NUMBER                 Running object number                                     
#   2 EXT_NUMBER             FITS extension number                                     
#   3 FLUX_BEST              Best of FLUX_AUTO and FLUX_ISOCOR                          [count]
#   4 FLUXERR_BEST           RMS error for BEST flux                                    [count]
#   5 MAG_BEST               Best of MAG_AUTO and MAG_ISOCOR                            [mag]
#   6 MAGERR_BEST            RMS error for MAG_BEST                                     [mag]
#   7 KRON_RADIUS            Kron apertures in units of A or B                         
#   8 X_IMAGE                Object position along x                                    [pixel]
#   9 Y_IMAGE                Object position along y                                    [pixel]
#  10 A_IMAGE                Profile RMS along major axis                               [pixel]
#  11 B_IMAGE                Profile RMS along minor axis                               [pixel]
#  12 THETA_IMAGE            Position angle (CCW/x)                                     [deg]
         1   1     960937.1     175.4648 -14.9567   0.0002  3.50   1107.5234    183.5919     5.340     4.968 -24.84
         2   1     39013.66     156.6322 -11.4780   0.0044  3.53     63.5538     54.8550     4.774     4.327  14.13
         3   1     5967.769     116.8617  -9.4395   0.0213  4.03    984.9713     18.2245     4.232     2.082 -89.63
         4   1      9936.33      68.8736  -9.9931   0.0075  3.50   1445.6385     16.2632     2.084     1.959  11.85
         5   1     3395.491     58.17172  -8.8273   0.0186  3.50     91.2070     19.4933     1.722     1.675 -35.97
         6   1     209.2855     42.93069  -5.8018   0.2228  5.40    144.9073      5.7573     1.034     0.633   9.20
         7   1     46217.76     80.22186 -11.6620   0.0019  3.50   1078.3911     61.4081     2.423     2.319  59.57
         8   1     109.6157      31.0941  -5.0997   0.3081  6.30   1183.4889     11.4957     0.507     0.493  45.21
         9   1      585.869     69.31089  -6.9195   0.1285  6.46    384.5130     19.1514     1.297     0.942   6.16
        10   1     1159.835     86.03714  -7.6610   0.0806  6.28    366.8659     26.2161     1.525     1.280  22.60
        11   1     573.4666     73.12899  -6.8963   0.1385  7.73    382.6375     25.5770     1.060     0.890  39.76
        12   1     413.6871      61.4551  -6.5417   0.1613  6.21   1110.6573     36.5201     1.208     0.841 -30.93
        13   1      766.426     90.82057  -7.2112   0.1287  6.43    326.6969     34.9270     1.803     1.163  -8.22
        14   1      44870.2     80.59761 -11.6299   0.0020  3.50    537.4368     81.5308     2.430     2.348  -8.32
        15   1     210.0981     42.22104  -5.8061   0.2182  6.22   1521.2738     40.0138     0.742     0.662  86.08
        16   1     209.3334      49.4704  -5.8021   0.2566  6.79   1170.7142     40.8831     1.092     0.519  36.57
        17   1      322.033     55.24126  -6.2698   0.1863  6.09    915.1624     44.3197     1.038     0.830 -57.45
        18   1     277.7855     38.08233  -6.1093   0.1489  8.87    440.3444     45.6934     0.570     0.337  43.21
        19   1     1417.659     52.14638  -7.8789   0.0399  3.50    128.1098     76.7034     1.561     1.491 -24.20
        20   1     66683.69     83.36176 -12.0600   0.0014  3.50    788.9786    123.3897     2.498     2.419   4.77
        21   1     1683.719     125.8255  -8.0657   0.0812  6.74    376.6921     91.3488     2.288     1.605  61.82
        22   1     517.5907     75.36711  -6.7850   0.1581  5.96    421.1934     84.3888     1.544     1.098 -71.75
        23   1     2056.669     54.41467  -8.2829   0.0287  3.50     56.0558     98.1717     1.678     1.562   6.10
        24   1     820.1246      86.3876  -7.2847   0.1144  6.28    452.6898     99.9307     1.568     1.275   0.54
        25   1     274.6748     47.60292  -6.0970   0.1882  5.95    495.7605     92.9689     0.891     0.757  -1.80
        26   1     268.6844     46.64114  -6.0731   0.1885  8.14   1075.7949     97.6177     0.767     0.445  18.15
        27   1     288104.8     95.52266 -13.6489   0.0004  3.50    317.9671    195.1555     2.896     2.730 -41.00
        28   1     280.2682     54.69159  -6.1189   0.2119  7.53    990.2151    118.7656     0.770     0.712  56.10
        29   1     54484.43     297.3309 -11.8407   0.0059  4.73    403.6314    236.5366     6.946     5.992 -40.23
        30   1     159.0653     35.19613  -5.5039   0.2403  7.99    415.3349    118.3205     0.572     0.336 -44.34
        31   1     37434.54     77.15002 -11.4332   0.0022  3.50   1468.2545    163.8892     2.296     2.241 -10.68
        32   1      307.777     51.85587  -6.2206   0.1830  8.56    418.0072    132.4838     0.792     0.500   0.89
        33   1         8480     74.76336  -9.8210   0.0096  3.67    877.2186    171.7650     2.130     2.070 -61.45
        34   1     241.6152      49.4704  -5.9578   0.2224  6.63    353.7884    148.7737     0.925     0.639 -84.62
        35   1     127.2219     27.48356  -5.2614   0.2346  5.02   1280.5729    152.7571     0.724     0.458  70.56
        36   1      1365.85     63.56515  -7.8385   0.0505  5.82    325.5382    173.2196     1.818     1.670  -4.13
        37   1     120.4602      29.6007  -5.2021   0.2669  6.72   1580.0000    158.0047     0.842     0.289  90.00
        38   1     1051.164     85.68525  -7.5542   0.0885  6.16   1445.8735    166.7163     1.480     1.385  25.87
        39   1     550.3578     44.65549  -6.8516   0.0881  3.50    104.0993    167.9453     1.408     1.211  84.99
        40   1     116.8867      31.0941  -5.1694   0.2889  6.59    634.5320    161.5320     0.509     0.489  45.00
        41   1     367.8981     59.20139  -6.4143   0.1748  6.42   1368.4977    170.4764     0.962     0.894   1.76
        42   1     151.4938     36.46106  -5.4510   0.2614  6.52    651.2306    170.4272     0.769     0.448  19.56
        43   1     228.3018     42.22104  -5.8963   0.2008  8.72    353.0000    174.9999     0.852     0.289  90.00
        44   1     567.8269     73.95068  -6.8855   0.1414  7.27    575.3188    181.4357     1.271     0.859  32.56
        45   1     1082.872     72.29795  -7.5864   0.0725  5.38   1350.5814    194.1510     1.441     1.348 -59.92
        46   1      453.973     59.96204  -6.6426   0.1434  6.57   1354.9644    188.1913     1.031     0.844  38.80
        47   1     5156.241      142.491  -9.2808   0.0300  4.73    827.3460    212.4521     4.318     2.214 -12.76
        48   1     1961.371     76.75739  -8.2314   0.0425  4.84    548.9800    208.1718     1.701     1.562 -58.90
        49   1     1824.076     116.2135  -8.1526   0.0692  6.64    349.6498    210.0761     2.003     1.599  47.49
        50   1     295.3995     46.96392  -6.1760   0.1727  7.55    268.8281    196.8623     0.736     0.566  48.35
        51   1     1639.591     54.41467  -8.0368   0.0360  3.50   1306.0121    213.7669     1.671     1.540  -5.55
        52   1     5028.152     180.1379  -9.2535   0.0389  5.54    561.9318    232.0031     3.529     3.154 -29.96
        53   1     85496.79     85.86137 -12.3299   0.0011  3.50     67.5820    267.4367     2.529     2.465   0.37
        54   1     386.8107     64.57174  -6.4687   0.1813  6.86    250.8531    205.3313     1.503     0.627  36.19
        55   1     652.8837     76.16467  -7.0371   0.1267  5.19    684.2394    212.3623     1.588     1.414 -21.58
        56   1     122310.6      86.3876 -12.7187   0.0008  3.50    997.3749    261.3199     2.518     2.501 -17.14
        57   1     1863.658      57.1235  -8.1759   0.0333  3.71   1226.0275    225.6272     1.640     1.514  56.46
        58   1     741.2997     72.06856  -7.1750   0.1056  8.48   1122.8446    224.0565     1.867     1.284  68.89
        59   1     1458.448     120.1758  -7.9097   0.0895  6.80    345.1105    223.5607     2.007     1.648  39.52
        60   1     805.0812     67.99056  -7.2646   0.0917  5.08    774.7054    224.2255     1.487     1.275 -64.85
        61   1     1417.984     101.3543  -7.8792   0.0776  5.27    112.9839    245.6963     2.199     1.771 -78.23
        62   1     213.4856     37.68048  -5.8234   0.1917  8.75   1125.8469    231.3209     0.924     0.677  71.18
        63   1     490.6482     66.87038  -6.7269   0.1480  7.47    547.5412    231.7082     1.074     0.772 -44.04
        64   1     353329.8     95.04702 -13.8705   0.0003  3.50    439.4165    313.6676     2.829     2.729 -36.18
        65   1     4236.942     115.1689  -9.0676   0.0295  4.77    612.7988    256.8020     2.731     2.242 -30.84
        66   1     873.5432     99.54967  -7.3532   0.1238  6.70    838.1739    240.4633     1.587     1.461   3.13
        67   1     715.1459     81.89915  -7.1360   0.1244  6.81   1372.6396    253.3756     1.534     1.006 -71.57
        68   1     350.4878     47.75455  -6.3617   0.1480  6.96    107.4887    251.8521     1.125     0.945 -51.68
        69   1     19900.19     73.95068 -10.7471   0.0040  3.50   1486.3608    289.1078     2.189     2.129   1.53
        70   1     199.4238     39.63735  -5.7494   0.2159  8.14   1352.0000    254.4976     0.805     0.311  31.85
        71   1     4359.197     65.03796  -9.0985   0.0162  3.64   1522.2334    283.4614     1.855     1.818  52.53
        72   1     458.2483     69.09259  -6.6528   0.1637  6.65   1273.7917    272.2899     1.216     0.928   3.53
        73   1     14717.24     74.15469 -10.4196   0.0055  3.50    201.6433    304.5838     2.210     2.163   9.79
        74   1     312029.1     91.81318 -13.7355   0.0003  3.50    890.7019    352.8531     2.715     2.642 -41.86
        75   1     58529.87      82.0834 -11.9184   0.0015  3.50    905.3503    320.1975     2.421     2.364  24.63
        76   1     1937.697     94.88795  -8.2182   0.0532  5.18    515.0864    291.2042     1.937     1.813  18.54
        77   1     300490.4     91.15264 -13.6946   0.0003  3.50   1345.7841    352.8824     2.668     2.625 -27.02
        78   1     1856.879     61.94479  -8.1720   0.0362  3.89   1327.5552    295.5386     1.682     1.633  16.39
        79   1     864.5187     51.49022  -7.3419   0.0647  5.36   1475.5227    294.7332     1.492     1.373 -23.85
        80   1     1202.995     104.1478  -7.7007   0.0940  5.59   1413.4884    298.9619     2.178     1.670 -22.82
        81   1     899.4257     81.89915  -7.3849   0.0989  5.20    563.3644    303.5232     1.717     1.492 -20.79
        82   1     9869.271     71.24552  -9.9857   0.0078  3.50    697.2142    323.5642     2.099     2.085  49.40
        83   1      187.679     35.62276  -5.6835   0.2061  8.27    247.3224    294.2916     0.554     0.344 -43.19
        84   1     462.8004     66.41702  -6.6635   0.1559  7.46     85.5744    310.1268     1.365     0.616 -48.78
        85   1      991.235     93.92784  -7.4904   0.1029  5.54    641.3198    322.5255     1.952     1.534  77.66
        86   1     2036.878     92.46899  -8.2724   0.0493  5.22    595.3931    328.8960     1.903     1.716 -32.28
        87   1     6943.624     87.25758  -9.6040   0.0136  4.19    867.0430    347.9109     2.268     2.009  23.15
        88   1     383.6711     56.85843  -6.4599   0.1609  5.93   1545.7670    331.2282     1.148     0.833  43.51
        89   1     224.9403     46.64114  -5.8802   0.2252  6.96    955.6965    326.4326     1.006     0.480   7.93
        90   1     504.7996     58.68882  -6.7578   0.1263  6.20     93.5771    333.6953     0.972     0.941  55.49
        91   1     304.3094     45.65911  -6.2083   0.1629  5.32   1439.5736    336.6214     0.956     0.824 -18.30
        92   1     5450.575     86.03714  -9.3411   0.0171  4.20    431.7452    357.2964     2.159     2.036 -83.40
        93   1     1170.365      81.5294  -7.6708   0.0757  6.04     54.7642    351.3235     1.450     1.334  36.89
        94   1     10003.23     73.74612 -10.0003   0.0080  3.69    760.9797    369.6311     2.098     2.025  22.48
        95   1     49444.05     81.15797 -11.7353   0.0018  3.50    231.3501    396.6443     2.438     2.346 -26.63
        96   1     3953.911     74.35813  -8.9926   0.0204  4.10    442.7023    368.9082     1.895     1.795  30.23
        97   1     1930.514     79.84435  -8.2142   0.0449  4.74   1500.1451    362.7213     1.888     1.590   0.99
        98   1     544.2485     73.74612  -6.8395   0.1472  6.83   1033.3584    362.1609     1.242     0.996 -58.96
        99   1     248.7588     50.07742  -5.9894   0.2186  5.45    533.3394    361.2865     1.220     0.716  -8.83
       100   1     233.0095     48.85584  -5.9184   0.2277  6.54   1416.1498    364.6965     1.045     0.567 -71.96
       101   1     712.4941     67.76801  -7.1320   0.1033  6.48      1.7934    381.5630     2.153     0.808  85.38
       102   1     492.6294     71.87883  -6.7313   0.1585  5.92   1083.9889    375.3525     1.454     1.092 -64.09
       103   1     672.6339     65.70773  -7.0694   0.1061  6.62    753.3802    376.5252     1.873     1.157  41.53
       104   1     710.1769     76.16467  -7.1284   0.1165  6.34    992.6725    374.2662     1.285     1.157  16.77
       105   1     407.9713     64.57174  -6.5266   0.1719  7.04     72.0663    371.2897     1.284     0.692  -5.19
       106   1     203.9148     43.97369  -5.7736   0.2342  7.74    209.7980    370.4336     0.757     0.448 -20.39
       107   1     7713.223     67.32069  -9.7181   0.0095  3.50    354.4630    399.6178     2.015     1.927  17.26
       108   1      6838.96     65.03796  -9.5875   0.0103  3.50   1461.0834    398.5524     1.973     1.892  -9.62
       109   1     348.9087     58.68882  -6.3568   0.1827  5.85     67.1807    384.9309     1.527     0.709  84.48
       110   1     135.9012     33.43519  -5.3331   0.2672  6.14     87.0254    376.7699     0.694     0.421   1.10
       111   1     44983.77     78.70093 -11.6326   0.0019  3.50    433.2188    421.0812     2.333     2.294   2.46
       112   1     383.4158     57.91145  -6.4592   0.1640  6.75    125.8206    382.1245     0.976     0.759 -25.56
       113   1     1634.489     64.33736  -8.0335   0.0427  4.11   1088.6281    395.3354     1.647     1.544  16.84
       114   1     21614.14     74.56102 -10.8368   0.0037  3.50    837.3126    417.0416     2.190     2.176  -0.46
       115   1     751.8765     87.43054  -7.1904   0.1263  7.55    626.6415    397.2807     1.368     1.025 -84.30
       116   1     115.3041     28.56175  -5.1546   0.2690  5.87   1196.0000    390.9907     0.849     0.289  90.00
       117   1     1123.132     77.54066  -7.6261   0.0750  6.06      2.0189    413.5535     2.715     0.982  88.66
       118   1     286.4092     49.16408  -6.1425   0.1864  5.38    977.6584    397.7161     1.234     0.713 -45.75
       119   1     593.3502      82.0834  -6.9333   0.1502  7.12    526.5233    405.4549     1.416     0.997  81.85
       120   1     140823.1     86.21255 -12.8717   0.0007  3.50    807.5491    462.6602     2.555     2.475 -14.27
       121   1     3724.123     63.86601  -8.9276   0.0186  3.56    926.3503    425.5708     1.893     1.807  34.32
       122   1      16009.9     74.35813 -10.5110   0.0050  3.50    252.0299    439.4119     2.200     2.154   6.52
       123   1      326.849     59.70957  -6.2859   0.1984  6.41    281.9644    408.1780     1.164     0.805  29.18
       124   1      139.295     35.19613  -5.3598   0.2744  6.05    943.7690    403.4148     0.746     0.452 -19.26
       125   1      983.861       89.817  -7.4823   0.0991  5.77    159.3223    422.2342     1.823     1.389  51.62
       126   1     310.2051      63.1524  -6.2291   0.2211  7.70    299.5127    426.9843     1.409     0.499  88.57
       127   1     279.7494     50.67717  -6.1169   0.1967  7.34   1204.3010    419.4577     1.015     0.481  -8.30
       128   1     574.7485     81.15797  -6.8987   0.1533  7.05   1179.8237    428.1474     1.268     1.091  43.94
       129   1     1304.692     71.66835  -7.7888   0.0597  4.97   1421.9889    434.3695     1.561     1.400 -10.87
       130   1     347.3022     47.91922  -6.3518   0.1498  8.47    133.4179    424.2214     0.751     0.455  71.45
       131   1     163.2361     37.28051  -5.5320   0.2480  6.14   1580.9548    421.4904     0.779     0.499   2.63
       132   1     225.7141     35.62276  -5.8839   0.1714  8.26    136.3274    421.6681     0.574     0.335  45.20
       133   1     150.7225     36.46106  -5.4454   0.2627  7.37   1063.4728    425.5190     0.503     0.496  46.61
       134   1     488.6035     60.96148  -6.7224   0.1355  8.40    718.8472    431.2665     1.078     0.508  67.24
       135   1      8322.82     199.9323  -9.8007   0.0261  5.00    850.2134    469.1349     7.548     2.225  21.82
       136   1     5339.822     75.76694  -9.3188   0.0154  3.90     21.3253    451.8556     2.060     1.922   5.18
       137   1     677.4677     69.96172  -7.0772   0.1122  6.04    151.0911    435.1286     1.241     1.134  51.93
       138   1     634.8436     67.54472  -7.0067   0.1155  5.43    305.5746    441.5392     1.442     1.138 -51.09
       139   1     993.9893     78.31608  -7.4935   0.0856  5.59    122.1032    446.8862     1.507     1.357  85.17
       140   1     88.05652     28.56175  -4.8619   0.3523  6.28    353.6777    435.6659     0.573     0.336 -45.54
       141   1     5606.698     70.82017  -9.3718   0.0137  3.84     34.4943    459.3141     1.978     1.858 -40.63
       142   1      861.276     89.14168  -7.3379   0.1124  5.30    883.2843    448.6035     2.240     1.327   8.67
       143   1     304.5463      57.1235  -6.2091   0.2037  8.37    654.3730    445.0174     1.075     0.452 -25.28
       144   1     1726.014     58.94566  -8.0926   0.0371  3.68    468.4330    465.1303     1.735     1.537  46.31
       145   1     312.1635     45.98878  -6.2360   0.1600  5.49   1533.5865    454.5111     0.992     0.775   2.57
       146   1     605.0685     45.98878  -6.9545   0.0825  3.92   1096.4275    462.4618     1.424     1.022  13.25
       147   1     86.59912     26.92828  -4.8438   0.3377  6.17   1224.3199    454.6659     0.572     0.336  45.66
       148   1     2210.308     70.17731  -8.3611   0.0345  4.30    734.7417    473.5643     1.678     1.675 -33.57
       149   1     363.7458     60.71316  -6.4020   0.1813  7.85    723.9954    463.4890     1.225     0.497 -62.96
       150   1     1530.537     64.57174  -7.9621   0.0458  4.33    254.3181    473.0178     1.616     1.462   2.70
       151   1     2891.189     63.62903  -8.6527   0.0239  3.78    922.8595    479.3813     1.766     1.691  52.44
       152   1     2798.675     131.9211  -8.6174   0.0512  5.05     82.6225    497.7401     2.808     2.572 -64.18
       153   1     1125.187     60.21346  -7.6281   0.0581  4.00   1276.8651    479.2165     1.665     1.468  88.30
       154   1     162.1331     41.86171  -5.5247   0.2804  6.10   1198.3260    468.1647     0.748     0.646 -25.48
       155   1     110.0341     35.62276  -5.1038   0.3516  8.23    561.6644    466.6414     0.589     0.326 -45.83
       156   1     21862.88      182.967 -10.8493   0.0091  4.39    518.4863    534.3797     4.585     3.993  35.04
       157   1     753.6005     88.11899  -7.1929   0.1270  5.49    839.4061    489.4297     2.625     1.021 -82.78
       158   1     2236.347     107.1506  -8.3738   0.0520  4.40   1186.5585    497.1438     2.870     2.196 -19.22
       159   1     252.9653     45.32704  -6.0077   0.1946  5.24   1167.6361    477.6234     1.408     0.553 -32.52
       160   1     1199.841     49.77484  -7.6978   0.0451  3.50   1070.7618    485.5689     1.530     1.377 -13.33
       161   1     187.9873     29.08586  -5.6853   0.1680  3.50    682.6039    480.4048     0.940     0.796 -42.47
       162   1     135.1721       33.884  -5.3272   0.2722  6.47   1309.2524    483.2264     0.842     0.348  17.61
