#   1 NUMBER                 Running object number                                     
#   2 EXT_NUMBER             FITS extension number                                     
#   3 FLUX_BEST              Best of FLUX_AUTO and FLUX_ISOCOR                          [count]
#   4 FLUXERR_BEST           RMS error for BEST flux                                    [count]
#   5 MAG_BEST               Best of MAG_AUTO and MAG_ISOCOR                            [mag]
#   6 MAGERR_BEST            RMS error for MAG_BEST                                     [mag]
#   7 KRON_RADIUS            Kron apertures in units of A or B                         
#   8 X_IMAGE                Object position along x                                    [pixel]
#   9 Y_IMAGE                Object position along y                                    [pixel]
#  10 A_IMAGE                Profile RMS along major axis                               [pixel]
#  11 B_IMAGE                Profile RMS along minor axis                               [pixel]
#  12 THETA_IMAGE            Position angle (CCW/x)                                     [deg]
         1   1     40401.89     188.7382 -11.5160   0.0051  4.42     63.6155     53.0910     4.634     4.137   4.17
         2   1     5447.267     89.98504  -9.3404   0.0179  3.58    984.8575     16.4960     3.583     1.857 -84.55
         3   1     3395.927     75.36711  -8.8274   0.0241  4.44     91.1923     17.7399     1.759     1.740 -47.54
         4   1     9776.775     66.41702  -9.9755   0.0074  3.50   1445.5409     14.7008     1.960     1.923 -49.70
         5   1     634.5168     37.28051  -7.0061   0.0638  3.62    367.1595     24.5777     1.419     0.833  47.29
         6   1     46203.48     81.71449 -11.6617   0.0019  3.50   1078.2531     59.7910     2.421     2.359  41.12
         7   1     949758.9     156.3425 -14.9440   0.0002  3.50   1107.1821    182.1538     4.767     4.396 -20.21
         8   1     44835.38     80.97161 -11.6291   0.0020  3.50    537.4637     80.1553     2.371     2.360 -13.65
         9   1     1462.385      68.4335  -7.9127   0.0508  4.53    127.4319     75.1598     1.644     1.478  -3.99
        10   1     66490.23     83.36176 -12.0569   0.0014  3.50    788.9753    121.7149     2.461     2.428 -30.41
        11   1     241.4991      31.0941  -5.9573   0.1398  7.35    421.2994     82.3309     0.561     0.341 -46.68
        12   1     2103.664      68.6539  -8.3074   0.0354  4.71     55.8989     96.3179     1.572     1.399 -28.74
        13   1     770.9999     53.29259  -7.2176   0.0751  6.40    376.5159     89.2278     0.982     0.728  -0.07
        14   1     81.07104     23.95961  -4.7722   0.3210  5.58   1047.2649     93.6528     0.551     0.343  49.92
        15   1       286933     93.92784 -13.6445   0.0004  3.50    317.9665    193.4245     2.804     2.696 -51.34
        16   1     37351.36     78.70093 -11.4308   0.0023  3.50   1468.0618    162.3670     2.333     2.287 -35.48
        17   1     50337.18     238.9647 -11.7547   0.0052  4.66    403.6088    234.6312     5.794     4.792 -40.16
        18   1     8347.056     70.39225  -9.8038   0.0092  3.56    877.1565    170.3189     2.049     1.955 -19.78
        19   1     1656.455      84.6208  -8.0479   0.0555  6.63    325.2571    171.3411     1.337     1.282  62.30
        20   1     536.5547     47.91922  -6.8240   0.0970  6.22    104.3365    166.7927     0.959     0.664 -70.57
        21   1     692.8656     51.56372  -7.1016   0.0808  5.89   1445.7505    164.8058     1.157     0.701   3.17
        22   1     134.8331     48.85584  -5.3245   0.3935  8.20   1047.0035    179.0084     0.627     0.591 -89.96
        23   1     1667.654     48.54564  -8.0553   0.0316  3.50   1225.4326    223.6877     1.522     1.332 -20.46
        24   1     158.5602     32.05106  -5.5005   0.2195  7.58    574.6927    178.3219     0.561     0.341  45.79
        25   1     946.1237     53.00837  -7.4399   0.0608  4.80   1350.5906    192.4226     1.338     0.981 -38.17
        26   1     5079.452     137.3078  -9.2645   0.0294  5.72    826.8124    210.2065     3.007     2.024 -12.95
        27   1     1815.728     60.71316  -8.1476   0.0363  4.56    548.8281    206.2795     1.488     1.249  67.75
        28   1     1139.123     70.82017  -7.6414   0.0675  5.55    349.4782    208.4109     1.406     1.252  36.84
        29   1     1577.168     49.16408  -7.9947   0.0339  3.50   1305.9169    212.2401     1.568     1.304  36.43
        30   1     4786.175     149.3245  -9.2000   0.0339  6.06    562.0883    228.9766     2.875     2.216  12.59
        31   1     122050.3     87.25758 -12.7163   0.0008  3.50    997.2212    259.5888     2.579     2.522  -4.91
        32   1     292.3553     32.98027  -6.1648   0.1225  7.72    684.3239    209.6646     0.574     0.335  45.52
        33   1     1146.716     83.36176  -7.6486   0.0789  6.79    344.5758    221.2890     1.672     0.940   1.64
        34   1     85184.53     86.73664 -12.3259   0.0011  3.50     67.4351    265.5772     2.522     2.506  21.58
        35   1     681.9943     51.26991  -7.0845   0.0816  6.56    774.9652    222.0251     0.795     0.775  42.59
        36   1     1278.263     74.15469  -7.7666   0.0630  5.42    112.7746    243.9682     1.670     1.178  60.18
        37   1     3870.596     87.77544  -8.9694   0.0246  4.17    612.6370    255.0827     2.406     1.928 -10.07
        38   1     352399.3     94.88795 -13.8676   0.0003  3.50    439.1573    312.1846     2.846     2.739 -14.41
        39   1     19698.29     73.33527 -10.7361   0.0040  3.50   1486.1431    287.5018     2.207     2.118 -24.94
        40   1     4337.215     65.96053  -9.0930   0.0165  3.98   1521.9918    281.9189     1.743     1.688  -7.59
        41   1     58454.79     83.54278 -11.9171   0.0016  3.50    905.3004    318.4669     2.485     2.424 -31.26
        42   1      1893.14     87.77544  -8.1930   0.0504  5.58    514.4261    289.1158     1.788     1.469  63.91
        43   1     14596.89     73.54099 -10.4107   0.0055  3.57    201.6057    302.7955     2.143     2.089 -18.70
        44   1     300377.1     92.79517 -13.6942   0.0003  3.50   1345.6709    351.3190     2.762     2.677  -7.63
        45   1     1668.023      49.4704  -8.0555   0.0322  3.50   1327.3610    293.8683     1.619     1.312 -21.17
        46   1     1029.776     59.70957  -7.5319   0.0630  6.89   1476.2544    292.7828     0.968     0.831 -33.60
        47   1     311643.9     93.12019 -13.7341   0.0003  3.50    890.6008    351.2159     2.764     2.681 -24.49
        48   1     9662.607     69.52851  -9.9627   0.0078  3.50    697.0856    321.6900     2.086     1.951   5.65
        49   1     657.4446     55.24126  -7.0446   0.0913  5.51    562.6378    301.8018     1.362     0.775  12.85
        50   1     1967.595     82.99852  -8.2348   0.0458  6.10    595.1932    327.4460     1.516     1.291 -74.65
        51   1     555.3384     54.41467  -6.8614   0.1064  8.62    639.1961    322.2047     1.190     0.339 -11.05
        52   1     6971.314     91.31823  -9.6083   0.0142  4.71    866.8765    346.1631     2.055     1.933  14.45
        53   1     5454.008     90.48729  -9.3418   0.0180  4.49    431.6170    355.4445     2.198     1.938 -76.19
        54   1     957.2404     64.57174  -7.4526   0.0733  4.98     54.4922    349.5135     1.690     1.070  -6.20
        55   1     9934.709     73.95068  -9.9929   0.0081  3.71    760.9304    367.8005     2.105     1.974 -27.69
        56   1     1677.565     55.24126  -8.0617   0.0358  3.93   1500.1035    360.8821     1.557     1.338  33.04
        57   1     3590.252     57.91145  -8.8878   0.0175  3.53    442.6247    366.8896     1.763     1.625   6.01
        58   1     49359.41     82.45067 -11.7334   0.0018  3.50    231.3119    394.8519     2.474     2.345  56.04
        59   1     426.7286     38.86762  -6.5754   0.0989  6.92    991.5939    372.2412     0.752     0.455 -72.05
        60   1     7621.203     67.09591  -9.7051   0.0096  3.50    354.4064    397.7922     2.021     1.902  49.94
        61   1     416.0286     32.98027  -6.5478   0.0861  5.72      1.3959    380.3700     1.037     0.465 -80.62
        62   1      44959.8     81.89915 -11.6321   0.0020  3.50    433.1689    419.2200     2.406     2.369  54.66
        63   1     6813.623     66.64408  -9.5834   0.0106  3.59   1460.9517    396.8803     1.994     1.798  11.56
        64   1     1626.671     59.20139  -8.0282   0.0395  4.33   1088.5785    393.7094     1.476     1.301  72.27
        65   1     21581.75     75.56728 -10.8352   0.0038  3.50    837.2755    415.3583     2.239     2.187  -5.51
        66   1     186.5719     32.98027  -5.6771   0.1920  7.63    976.6554    396.6867     0.573     0.335 -43.58
        67   1     990.7262     61.94479  -7.4899   0.0679  6.06      1.8775    413.0595     1.890     0.874  85.12
        68   1     140455.3     87.94738 -12.8688   0.0007  3.50    807.4019    460.6570     2.610     2.524  -6.89
        69   1     15815.99     72.71465 -10.4977   0.0050  3.50    251.9084    437.5254     2.182     2.108  -1.40
        70   1     3663.454     60.96148  -8.9097   0.0181  3.78    926.2774    423.9701     1.768     1.561 -23.90
        71   1     960.0167     73.74612  -7.4557   0.0834  5.58    159.0854    420.2744     1.694     1.091  -7.91
        72   1     1339.136     70.82017  -7.8171   0.0574  5.40   1422.1624    432.4408     1.444     1.264  47.43
        73   1     5237.409     73.54099  -9.2978   0.0152  3.99     21.3062    449.6367     1.946     1.838 -80.78
        74   1     512.8212     45.32704  -6.7749   0.0960  5.17    305.7709    439.7753     1.065     0.762  44.23
        75   1     856.1461     61.94479  -7.3314   0.0786  6.17    122.5365    444.2963     1.246     0.855 -53.55
        76   1     5687.134     74.35813  -9.3872   0.0142  4.08     34.4898    457.3026     1.894     1.847  37.21
        77   1       8024.4     173.8213  -9.7610   0.0235  5.41    850.3477    467.4284     5.742     1.894  22.64
        78   1     275.0789       33.884  -6.0986   0.1338  6.19    884.0000    446.4981     1.151     0.289  90.00
        79   1     1693.618     72.92212  -8.0720   0.0468  5.00    468.0790    463.4041     1.587     1.460 -19.81
        80   1     2136.728     62.43064  -8.3244   0.0317  4.17    735.0135    471.5247     1.571     1.493 -70.61
        81   1     1535.457     63.39117  -7.9656   0.0448  4.49    254.0545    470.9431     1.468     1.405 -89.87
        82   1      2898.49     73.95068  -8.6554   0.0277  4.63    922.8331    477.6007     1.756     1.554 -26.07
        83   1     926.5383     42.93069  -7.4172   0.0503  3.50   1276.2673    477.5721     1.351     1.163 -70.78
        84   1     1216.573     56.32453  -7.7128   0.0503  4.56   1070.1747    483.7100     1.311     1.252 -64.27
        85   1     2163.957      109.659  -8.3381   0.0550  5.67   1189.0266    494.2781     2.946     1.336 -44.12
        86   1     21203.87     167.3566 -10.8160   0.0086  4.78    518.9084    532.4904     4.017     3.203  38.51
        87   1     206.2465      31.0941  -5.7860   0.1637  6.79    682.4465    481.4955     0.500     0.497  77.65
        88   1     2443.338     91.48351  -8.4700   0.0407  5.85     82.4784    495.3385     1.746     1.467  36.76
        89   1     12592.01     81.34389 -10.2502   0.0070  3.57   1302.7463    512.2041     2.782     1.966   6.51
        90   1     490.3882     45.32704  -6.7263   0.1004  9.22    840.4950    491.5050     0.502     0.498  45.00
        91   1     1113.511     74.35813  -7.6167   0.0725  6.15    762.0901    502.9550     1.313     1.179 -81.81
        92   1     3097.357     112.6491  -8.7275   0.0395  5.54   1460.5059    514.6791     2.937     1.496  33.07
        93   1     552.5054     43.97369  -6.8558   0.0864  5.08    863.8113    501.1106     0.985     0.798  56.66
        94   1     749.8351     62.43064  -7.1874   0.0904  6.30   1178.6985    513.5328     1.120     0.911 -75.55
        95   1     473.3323     52.14638  -6.6879   0.1196  7.96    642.0176    518.3929     0.893     0.488  -0.40
        96   1     323068.6     92.79517 -13.7732   0.0003  3.50   1315.8386    587.6234     2.728     2.718  -2.16
        97   1      1442.41     46.96392  -7.8977   0.0354  3.51    999.8556    539.9919     1.457     1.301 -16.37
        98   1     2216.414     60.96148  -8.3641   0.0299  3.93   1041.7606    558.5294     1.727     1.464 -40.58
        99   1     578917.2      98.9408 -14.4065   0.0002  3.50    483.2269    630.7031     2.932     2.869   7.65
       100   1     9467.906     73.74612  -9.9406   0.0085  3.84    144.9194    580.0695     2.007     1.926  80.71
       101   1     6913.375      68.8736  -9.5992   0.0108  3.83   1242.7042    572.2161     1.897     1.794  29.87
       102   1     9509.687      75.1664  -9.9454   0.0086  3.81    319.2849    581.6049     2.070     1.965  81.29
       103   1     1712.537      75.1664  -8.0841   0.0477  4.87     45.6486    570.6914     1.819     1.368  49.18
       104   1    -33.42798     36.46106  99.0000  99.0000  0.00   1014.4710    558.4873     0.501     0.498  50.08
       105   1     1287.937     70.60654  -7.7747   0.0595  5.70   1337.1956    573.8708     1.473     1.086 -74.52
       106   1     1299.781     88.11899  -7.7847   0.0736  6.28   1446.5746    570.3129     1.884     1.115 -13.80
       107   1       6184.8     126.7823  -9.4783   0.0223  4.74    782.6166    596.4042     2.997     2.511 -63.64
       108   1     609.7974     46.96392  -6.9630   0.0836  5.61     75.9971    583.8234     0.951     0.748  82.68
       109   1     2688.201     76.95396  -8.5737   0.0311  4.71    542.7737   1001.1450     1.758     1.582  89.74
       110   1     675.4207     46.96392  -7.0739   0.0755  6.37    654.8236   1597.7446     1.241     0.630 -74.48
       111   1     111.0302      31.0941  -5.1136   0.3041  7.33     18.0420   1599.7506     0.673     0.432   2.26
       112   1     500.2672     58.43084  -6.7480   0.1268  8.67    373.6659   1594.1780     0.749     0.653  19.04
       113   1     2221.118     58.43084  -8.3664   0.0286  4.03    654.4980   1541.9027     1.639     1.372 -86.73
       114   1     3278.001     85.33191  -8.7890   0.0283  5.14    134.9510   1541.2913     1.734     1.684  72.80
       115   1     722.1378     69.74545  -7.1466   0.1049  7.14    654.0162    950.0659     1.326     0.753   0.15
       116   1     1751.988     68.21239  -8.1088   0.0423  4.50   1066.8491    938.7853     1.635     1.488 -58.00
       117   1      14553.5      72.5066 -10.4074   0.0054  3.50   1178.3800    929.3643     2.187     2.097  59.68
       118   1     985.3168     65.03796  -7.4839   0.0717  5.56   1322.6421    928.1387     1.281     1.091  26.84
       119   1     809.8568     57.91145  -7.2710   0.0777  5.51    838.8096    912.6264     1.382     0.831 -85.83
       120   1     379.1001     45.98878  -6.4469   0.1317  8.07   1000.4026    911.2211     0.744     0.454  71.65
       121   1     833940.4     102.9809 -14.8028   0.0001  3.50    183.9357    881.5825     3.061     2.983 -29.62
       122   1     1242.191     61.20879  -7.7355   0.0535  4.59    538.6405    896.1897     1.458     1.304 -24.36
       123   1     5936.705     64.10212  -9.4339   0.0117  3.50    302.7996    899.8996     1.963     1.810  34.07
       124   1     112820.1     85.33191 -12.6310   0.0008  3.50   1592.3907    879.9979     2.575     2.480  66.62
       125   1     834.9633     61.94479  -7.3042   0.0806  7.68    326.2943    888.5486     0.995     0.689  31.38
       126   1     7794.539       172.95  -9.7295   0.0241  5.23    224.4595    878.1342     6.035     1.898  87.94
       127   1     665.8857     67.76801  -7.0585   0.1105  7.06   1499.8883    885.5247     1.026     0.930   3.35
       128   1     458.7755     39.63735  -6.6540   0.0938  8.35   1305.5270    886.5057     0.504     0.495 -47.07
       129   1     1213.588     82.81631  -7.7102   0.0741  7.18   1176.9066    877.1149     1.477     0.943 -65.49
       130   1     367.3038     49.16408  -6.4126   0.1454  6.54    960.7388    876.4881     1.145     0.537  68.85
       131   1     180.1525     39.63735  -5.6391   0.2389  7.49    543.0671    875.7926     0.710     0.405   2.34
       132   1     300937.2     93.76687 -13.6962   0.0003  3.50   1224.4207    858.9731     2.754     2.740  -5.02
       133   1     2481.319     72.71465  -8.4867   0.0318  4.05   1102.9988    869.0724     1.827     1.786   6.87
       134   1     690.1357     47.91922  -7.0973   0.0754  9.60    937.5118    867.4836     0.501     0.498 -43.87
       135   1     722.1268     73.33527  -7.1465   0.1103  7.20   1156.7402    859.0776     1.455     0.735   5.56
       136   1     487.2906     45.65911  -6.7195   0.1018  6.55   1340.0991    858.3291     0.848     0.602 -26.26
       137   1      885.799      72.5066  -7.3683   0.0889  7.98   1207.1744    846.1180     1.607     0.535  61.35
       138   1     505.8666      52.7226  -6.7601   0.1132  6.91   1063.5876    844.8873     1.093     0.575  26.82
       139   1     1053.151     67.99056  -7.5562   0.0701  5.24   1106.3439    842.8671     1.420     1.251 -12.74
       140   1     2053.136     93.44409  -8.2810   0.0494  6.44   1247.5007    837.5649     1.523     1.464  76.43
       141   1     1337.347     69.96172  -7.8156   0.0568  5.22    298.4915    836.3751     1.458     1.315 -47.34
       142   1     6314.381     67.09591  -9.5008   0.0115  3.50    654.3835    822.4539     2.008     1.885  60.33
       143   1     5632.774     70.17731  -9.3768   0.0135  3.84   1378.5323    802.8201     1.904     1.844  80.48
       144   1     17086.48     81.89915 -10.5816   0.0052  3.50    695.6246    798.0504     2.677     2.133  87.04
       145   1     2431.312      63.1524  -8.4646   0.0282  3.95     41.1991    800.0522     1.713     1.576  74.86
       146   1      2525.71     82.45067  -8.5060   0.0355  4.01   1427.2554    773.9119     2.582     1.709  87.28
       147   1     1308.327     52.14638  -7.7918   0.0433  3.96    391.8522    766.2654     1.502     1.218  61.13
       148   1     1397.099      63.1524  -7.8631   0.0491  4.38    556.6385    742.3195     1.552     1.429 -27.00
       149   1    -38.68054      31.0941  99.0000  99.0000  0.00   1025.4930    739.4398     0.505     0.492  36.86
       150   1     522.5328     52.14638  -6.7953   0.1084  5.74   1157.4829    737.3002     1.078     0.817  55.03
       151   1     396111.9     96.15318 -13.9945   0.0003  3.50    404.8298    723.6302     2.836     2.775 -29.75
       152   1     610.5779     55.24126  -6.9644   0.0983  6.52    649.7791    735.8962     0.991     0.767  27.59
       153   1     66828.81     83.90366 -12.0624   0.0014  3.50    848.3952    726.2191     2.482     2.434  11.12
       154   1     977.3474     64.10212  -7.4751   0.0712  5.62   1178.2944    726.7853     1.179     1.157  53.50
       155   1     276.5447     45.32704  -6.1044   0.1780  7.91   1395.1797    720.5832     0.746     0.450 -19.75
       156   1     1375.737     58.94566  -7.8463   0.0465  4.60    808.2138    715.3131     1.457     1.191  -2.96
       157   1     1188.864     53.57531  -7.6878   0.0489  4.21   1163.8234    708.3896     1.459     1.173  76.10
       158   1     1684.023     89.31099  -8.0659   0.0576  5.82   1338.7345    703.7881     1.951     1.275  60.80
       159   1     2214.611     58.17172  -8.3632   0.0285  3.87    952.2439    702.1437     1.614     1.469 -41.67
       160   1     438.6195     43.62879  -6.6052   0.1080  7.63    583.4163    699.2136     0.761     0.452  71.29
       161   1      950.572     67.54472  -7.4450   0.0772  7.48   1213.8329    691.0270     1.336     0.650  71.34
       162   1     1990.643     72.29795  -8.2475   0.0394  4.90    644.3724    685.1599     1.617     1.438 -63.45
