#   1 NUMBER                 Running object number                                     
#   2 EXT_NUMBER             FITS extension number                                     
#   3 FLUX_BEST              Best of FLUX_AUTO and FLUX_ISOCOR                          [count]
#   4 FLUXERR_BEST           RMS error for BEST flux                                    [count]
#   5 MAG_BEST               Best of MAG_AUTO and MAG_ISOCOR                            [mag]
#   6 MAGERR_BEST            RMS error for MAG_BEST                                     [mag]
#   7 KRON_RADIUS            Kron apertures in units of A or B                         
#   8 X_IMAGE                Object position along x                                    [pixel]
#   9 Y_IMAGE                Object position along y                                    [pixel]
#  10 A_IMAGE                Profile RMS along major axis                               [pixel]
#  11 B_IMAGE                Profile RMS along minor axis                               [pixel]
#  12 THETA_IMAGE            Position angle (CCW/x)                                     [deg]
         1   1     43031.22      193.874 -11.5845   0.0049  3.87     63.4906     54.0606     5.079     4.642  10.24
         2   1     5793.242     100.5898  -9.4073   0.0189  3.50    984.8857     17.6089     4.179     1.842 -88.11
         3   1      3889.92     59.13771  -8.9749   0.0165  3.50     91.0583     18.7909     1.665     1.590 -77.68
         4   1     10050.32     62.48773 -10.0055   0.0068  3.50   1445.5699     15.4372     1.765     1.663 -58.56
         5   1     272.1539     51.46277  -6.0870   0.2054  8.71   1469.4524      7.7679     0.745     0.449 -68.75
         6   1     377.4186     54.35074  -6.4421   0.1564  5.20    145.3089      4.5160     1.257     0.896  44.41
         7   1     182.9064     38.65202  -5.6556   0.2295  7.14   1183.4982     10.4944     0.503     0.497  44.88
         8   1     47777.05     73.70651 -11.6980   0.0017  3.50   1078.2454     60.5870     2.101     1.994  78.89
         9   1      121.897     35.92011  -5.2150   0.3200  7.81    839.6812     14.3362     0.572     0.336  45.80
        10   1     815.5618     49.44383  -7.2786   0.0658  3.71    367.0246     25.5086     1.386     1.224 -44.58
        11   1     313.1539     34.96207  -6.2394   0.1212  3.96    384.0876     17.9751     1.065     0.750  -6.21
        12   1     628639.9     196.4835 -14.4960   0.0003  3.50   1107.3342    182.7325     5.842     5.048 -33.02
        13   1     412.5127     69.19193  -6.5386   0.1822  7.95    383.1618     24.5880     1.000     0.715  87.82
        14   1     411.0596     64.88685  -6.5348   0.1714  7.77   1110.5074     35.5278     1.018     0.640  83.69
        15   1     489.6743     67.20037  -6.7248   0.1490  6.92    326.4466     34.3293     1.064     0.824 -55.26
        16   1     329.6283     52.11837  -6.2951   0.1717  5.72   1521.2977     38.8936     1.154     0.680  57.82
        17   1     305.9594     49.78601  -6.2142   0.1767  5.84   1170.4801     39.8461     0.941     0.732  -0.97
        18   1     376.8821     68.45188  -6.4405   0.1972  5.61    440.1219     45.8528     1.403     1.002 -39.18
        19   1     266.6208     31.91586  -6.0647   0.1300  3.50    915.3459     43.2799     1.174     0.700 -44.82
        20   1     45395.29     71.36602 -11.6425   0.0017  3.50    537.4124     80.9598     2.020     1.918 -67.89
        21   1     123.0419     32.96255  -5.2251   0.2909  6.79   1225.9862     40.5038     0.782     0.319 -32.64
        22   1      192.621     45.51041  -5.7118   0.2566  6.55    265.9854     51.1657     0.939     0.465  36.65
        23   1     168.0422     40.37072  -5.5635   0.2609  6.43   1435.2108     51.0299     0.788     0.497 -33.32
        24   1     98.57642     30.27804  -4.9844   0.3336  6.80   1233.6754     49.3377     0.575     0.334  45.58
        25   1     1443.583     46.61609  -7.8986   0.0351  3.50    127.6706     75.9613     1.365     1.260  65.46
        26   1     408.2594     58.84993  -6.5273   0.1565  5.75    421.4473     82.8388     1.212     0.808 -51.35
        27   1     950.8154     90.83411  -7.4452   0.1037  5.12    376.7948     91.5345     1.886     1.573 -74.03
        28   1     67575.17     73.24439 -12.0745   0.0012  3.50    788.9210    122.5929     2.107     1.961 -57.93
        29   1     2300.057     54.35074  -8.4043   0.0257  3.64     55.9943     97.3432     1.501     1.385  -9.78
        30   1     333.5238     60.55608  -6.3078   0.1972  6.18    495.8493     92.9185     1.341     0.684  75.14
        31   1      651.375     81.16087  -7.0346   0.1353  6.08    452.5781     98.7693     1.703     0.981 -24.86
        32   1     154.2637     26.70272  -5.4707   0.1880  4.43   1075.8324     96.5883     0.766     0.435  21.36
        33   1     149.1322     37.31108  -5.4339   0.2717  8.01    270.3333    114.3489     0.584     0.329 -45.61
        34   1     162.4226     47.33886  -5.5266   0.3165  7.06     66.8318    117.8673     0.748     0.562  46.85
        35   1     103.2026      27.3311  -5.0342   0.2876  6.06    990.6282    118.7044     0.576     0.332 -41.71
        36   1     141.1593     42.01918  -5.3743   0.3233  8.28    154.4909    118.5058     0.502     0.498  45.33
        37   1     49095.18     255.5262 -11.7276   0.0057  4.24    403.1562    235.9001     6.429     5.300 -56.45
        38   1     292492.9       81.786 -13.6653   0.0003  3.50    317.8754    194.4204     2.391     2.159 -62.51
        39   1     38067.35      70.1665 -11.4514   0.0020  3.50   1468.1359    163.1395     1.999     1.918 -60.49
        40   1     187.1254     32.96255  -5.6803   0.1913  5.04    418.0420    132.4922     0.804     0.500   0.54
        41   1     8498.897     62.48773  -9.8234   0.0080  3.50    877.1224    171.1363     1.766     1.710 -68.32
        42   1     196.1323     40.37072  -5.7314   0.2235  5.36    353.1507    147.2958     0.879     0.605 -30.05
        43   1     162.4594     43.60536  -5.5269   0.2915  6.86   1279.9960    152.5081     0.803     0.500  -1.46
        44   1     1258.237      70.1665  -7.7494   0.0606  4.82    325.0115    172.3745     1.467     1.346 -64.12
        45   1     693.4874     45.51041  -7.1026   0.0713  3.59   1445.5350    165.8674     1.320     1.134  -0.27
        46   1     527.6473     45.88193  -6.8059   0.0944  4.17    104.3067    167.5935     1.173     1.010 -28.86
        47   1     222.1099     46.25047  -5.8664   0.2261  5.09   1368.2188    170.4302     1.080     0.717 -47.27
        48   1     110.8446     29.71204  -5.1118   0.2911  5.71    651.5150    169.4399     0.503     0.493 -35.83
        49   1     295.2533     45.88193  -6.1755   0.1688  4.46    574.8821    181.2359     1.275     0.773  23.27
        50   1     910.8036     55.58614  -7.3986   0.0663  4.36   1350.3933    193.3881     1.357     1.132 -35.33
        51   1     414.7947     68.69945  -6.5446   0.1799  8.45   1354.0366    186.9876     0.796     0.783 -74.11
        52   1     4322.574     105.6924  -9.0894   0.0266  3.72    827.4822    211.5532     3.936     1.949  -7.29
        53   1     1755.155     51.46277  -8.1108   0.0318  3.50    548.9205    207.5034     1.549     1.369 -81.30
        54   1     211.6431     40.37072  -5.8140   0.2072  7.58    267.5382    196.0324     0.765     0.324  56.83
        55   1     2049.233     58.04004  -8.2790   0.0308  4.87    414.8996    229.8139     1.967     1.652 -19.48
        56   1     499.4551     49.09927  -6.7462   0.1068  3.50    684.4574    211.4506     1.680     1.042 -82.33
        57   1     944.3723     59.99275  -7.4379   0.0690  4.07    349.7025    209.4233     1.598     1.217  43.13
        58   1     267.6458     33.47363  -6.0689   0.1358  3.50    250.6058    204.3587     0.981     0.848 -42.34
        59   1       1643.4     48.40279  -8.0394   0.0320  3.50   1305.9009    212.9739     1.403     1.346  53.84
        60   1     4246.785     144.3876  -9.0702   0.0369  4.51    562.2184    231.0750     3.381     2.852  -9.41
        61   1     99.23352     20.18536  -4.9916   0.2209  3.50   1498.4841    204.4280     0.505     0.489 -36.27
        62   1     173.2189     39.52071  -5.5965   0.2478  7.06    937.2287    205.7527     0.855     0.346 -19.28
        63   1     2112.648     54.66221  -8.3121   0.0281  3.57   1225.8657    224.5217     1.548     1.416 -53.97
        64   1     102743.3      75.5267 -12.5294   0.0008  3.50    997.2145    260.5782     2.174     2.033 -60.88
        65   1     86609.15     73.70651 -12.3439   0.0009  3.50     67.3777    266.7132     2.116     1.998 -78.85
        66   1     800.7629     80.95142  -7.2588   0.1098  5.20    345.6050    223.1785     1.579     1.463 -22.38
        67   1     537.4136     41.20319  -6.8258   0.0833  3.50    774.7524    223.2261     1.202     1.068 -19.32
        68   1     199.5187     40.78908  -5.7500   0.2220  7.24    740.7268    219.2476     0.845     0.353 -18.84
        69   1     1409.202     80.31981  -7.8724   0.0619  4.32    112.8208    244.2684     2.123     1.544  77.16
        70   1     3733.852     98.71583  -8.9304   0.0287  4.49    612.7909    256.2215     2.503     1.802 -37.89
        71   1     521.6777     74.16574  -6.7935   0.1544  6.09    838.4949    239.9036     1.369     1.007 -37.93
        72   1     148.7583     33.97702  -5.4312   0.2480  5.00   1478.8186    240.0472     0.940     0.464 -53.93
        73   1     358609.2     83.22636 -13.8866   0.0003  3.50    439.2092    313.2080     2.401     2.209 -58.52
        74   1     535.1672     71.60352  -6.8212   0.1453  6.70   1372.6152    252.6677     1.226     0.877 -44.30
        75   1      520.522     68.45188  -6.7911   0.1428  6.94    107.4959    251.4614     1.084     0.836 -45.23
        76   1     175.6583     36.85326  -5.6117   0.2278  5.43   1352.5072    254.3471     0.868     0.476   0.00
        77   1     20123.32     66.18213 -10.7592   0.0036  3.50   1486.2755    288.3375     1.869     1.782 -55.67
        78   1     4219.441     55.58614  -9.0631   0.0143  3.50   1522.1934    282.7324     1.561     1.489 -43.42
        79   1     511.7219     74.62215  -6.7726   0.1584  6.94   1273.5472    271.2609     1.161     0.926 -11.08
        80   1     1663.002     63.02876  -8.0522   0.0412  3.57    514.7311    290.6129     1.859     1.552 -61.03
        81   1     59340.31     72.31131 -11.9334   0.0013  3.50    905.2509    319.4862     2.069     1.942 -61.70
        82   1     14794.44     64.62468 -10.4252   0.0047  3.50    201.5941    303.9936     1.829     1.708 -73.78
        83   1     1054.587     97.15569  -7.5577   0.1000  5.16   1413.5083    297.8686     2.150     1.549 -39.26
        84   1     1787.919      50.4634  -8.1309   0.0307  3.56   1327.3584    294.7549     1.400     1.322 -23.02
        85   1     304744.2     80.31981 -13.7098   0.0003  3.50   1345.7200    352.2489     2.313     2.158 -52.96
        86   1       316302       81.786 -13.7503   0.0003  3.50    890.5778    352.2323     2.350     2.174 -52.57
        87   1     617.0115     67.95404  -6.9757   0.1196  6.19   1475.4912    294.2966     1.171     0.977 -66.12
        88   1     705.2452     45.51041  -7.1209   0.0701  3.50    563.5292    302.8696     1.321     1.261  64.37
        89   1     9588.647     60.27507  -9.9544   0.0068  3.50    697.1324    322.8518     1.711     1.657 -67.39
        90   1     594.9465     88.17868  -6.9362   0.1610  6.40     85.4069    309.7060     1.983     0.885 -81.45
        91   1     742.0648     85.83723  -7.1761   0.1256  5.00    641.0074    322.1810     2.195     1.269 -76.22
        92   1      1724.36     74.84931  -8.0916   0.0471  4.49    595.2689    328.1170     1.627     1.559 -50.18
        93   1     137.3737     31.37942  -5.3448   0.2481  5.36    226.3809    317.8036     0.752     0.447 -71.76
        94   1     6542.492     66.43815  -9.5394   0.0110  3.66    866.9109    347.0935     1.821     1.669 -38.15
        95   1     430.6477      53.0866  -6.5853   0.1339  5.35     93.4377    332.8581     1.068     0.836  -7.83
        96   1     216.0994     34.47306  -5.8366   0.1732  4.20   1545.6162    330.3324     0.994     0.631  -6.15
        97   1     346.4821     42.42128  -6.3492   0.1330  4.50   1440.3218    335.7877     0.986     0.855 -48.97
        98   1     5431.816     71.84022  -9.3374   0.0144  3.79    431.6613    356.5633     1.957     1.739 -76.63
        99   1     845.7324     44.75812  -7.3181   0.0575  3.50     54.4747    350.8575     1.290     1.224 -39.25
       100   1     175.9059     39.52071  -5.6132   0.2440  5.14     42.2829    348.6108     0.983     0.545 -59.05
       101   1      9911.62     59.99275  -9.9904   0.0066  3.50    760.8817    368.9762     1.739     1.636 -55.02
       102   1     296.0448     57.97803  -6.1784   0.2127  7.08    920.2661    351.1112     0.939     0.676 -17.72
       103   1     1681.042      50.4634  -8.0639   0.0326  3.50   1500.1698    362.0320     1.428     1.398  10.15
       104   1     3736.442     57.09282  -8.9311   0.0166  3.61    442.6443    368.2886     1.606     1.455 -44.79
       105   1     122.0979     28.54641  -5.2168   0.2539  6.16    350.3493    353.6877     0.575     0.334  43.36
       106   1     49872.85      70.1665 -11.7447   0.0015  3.50    231.2756    396.0084     2.003     1.932 -59.51
       107   1     382.9711     63.29754  -6.4579   0.1795  6.26    533.2850    360.5867     1.031     0.915  21.62
       108   1     360.6892     35.44432  -6.3928   0.1067  3.53   1033.7421    361.4968     1.094     0.910 -34.22
       109   1     185.4641     40.37072  -5.6706   0.2364  5.96   1415.6968    363.8832     1.038     0.416 -78.20
       110   1     537.8372     39.08878  -6.8266   0.0789  3.50    992.1270    373.7502     1.191     1.021 -58.62
       111   1     437.0312     61.11421  -6.6013   0.1519  4.95   1083.8434    373.9765     1.443     1.000 -45.30
       112   1     180.8215     39.52071  -5.6431   0.2374  6.12    210.5096    369.9420     0.786     0.499  87.58
       113   1     382.2458     63.56519  -6.4559   0.1806  6.59     71.4292    371.1455     1.204     0.716 -16.36
       114   1     586.8914     83.43011  -6.9214   0.1544  6.58    753.9877    376.9810     1.723     0.867  38.43
       115   1     6674.975     58.84993  -9.5611   0.0096  3.50   1461.0035    397.8752     1.678     1.607 -57.54
       116   1     252.0526     42.01918  -6.0037   0.1810  5.17     86.3840    376.6144     1.364     0.457  23.01
       117   1     8002.958     61.94198  -9.7581   0.0084  3.50    354.4046    398.9585     1.759     1.641 -56.82
       118   1     223.1406     48.75227  -5.8714   0.2373  5.97    125.6369    380.9103     0.902     0.682 -22.70
       119   1     1709.316     54.66221  -8.0821   0.0347  3.64   1088.6681    394.5150     1.553     1.372 -16.65
       120   1     45832.43     69.92413 -11.6529   0.0017  3.50    433.1460    420.3994     1.997     1.878 -57.35
       121   1     21834.44     66.94727 -10.8479   0.0033  3.50    837.1794    416.4439     1.895     1.794 -67.30
       122   1     180.0017     38.21027  -5.6382   0.2305  5.36   1195.2917    390.0044     0.739     0.674  85.80
       123   1     162.1672     39.08878  -5.5249   0.2618  6.62    260.4030    390.2305     0.744     0.452  71.18
       124   1     259.3776     46.25047  -6.0348   0.1936  4.81    977.5050    397.2771     1.103     0.780 -21.24
       125   1      461.718     69.19193  -6.6609   0.1627  5.97    626.5070    397.9344     1.528     0.795  15.77
       126   1     528.4319     41.20319  -6.8075   0.0847  3.50    305.5588    440.8153     1.189     1.082 -50.74
       127   1     195.2987     43.60536  -5.7267   0.2425  6.01    281.6329    407.6977     1.007     0.467 -82.40
       128   1     348.2639     56.79468  -6.3548   0.1771  7.28      2.5615    415.6719     1.141     0.754  28.95
       129   1     327.1414      50.4634  -6.2868   0.1675  7.80    526.8889    404.5128     0.784     0.499  -1.99
       130   1     3869.398     57.09282  -8.9691   0.0160  3.50    926.1458    425.0124     1.635     1.521 -46.76
       131   1     142617.7     75.75114 -12.8854   0.0006  3.50    807.3679    461.8470     2.148     2.048 -54.81
       132   1     233.6384     54.03748  -5.9214   0.2512  7.26   1562.2982    413.7131     1.155     0.451 -60.78
       133   1     16073.22     64.09712 -10.5153   0.0043  3.50    251.9271    438.7642     1.813     1.728 -54.88
       134   1     877.7545     78.39442  -7.3584   0.0970  4.91    158.7295    421.8596     1.660     1.444  50.88
       135   1     84.70972     25.39935  -4.8198   0.3256  5.46    199.3263    412.6987     0.560     0.342  43.64
       136   1     187.2247     40.37072  -5.6809   0.2342  9.12    558.6304    415.3152     0.584     0.328  42.89
       137   1     272.7778     54.97191  -6.0895   0.2189  6.12   1203.5216    419.5396     1.222     0.608  13.28
       138   1     1226.428     50.12585  -7.7216   0.0444  3.50   1421.9036    433.6358     1.428     1.337 -17.73
       139   1     525.3582     70.64876  -6.8011   0.1460  6.05   1179.3110    427.7109     1.296     0.986  20.69
       140   1     136.8037     33.97702  -5.3402   0.2697  5.64   1579.7715    420.6244     0.757     0.446  17.88
       141   1     288.1119     54.97191  -6.1489   0.2072  7.11   1063.8502    424.8950     0.815     0.670 -46.61
       142   1     421.1068     65.14796  -6.5610   0.1680  6.86    717.7710    431.8513     0.930     0.895 -64.55
       143   1     523.5742     54.35074  -6.7974   0.1127  5.00    151.0015    434.9498     1.154     0.980  25.47
       144   1     7422.975     173.4454  -9.6764   0.0254  4.46    850.1890    468.5386     7.442     1.903  22.22
       145   1     5115.388     59.42409  -9.2722   0.0126  3.51     21.1382    451.1122     1.703     1.572 -39.37
       146   1     885.1393     78.82635  -7.3675   0.0967  5.35    122.1262    446.1109     1.653     1.204 -32.70
       147   1     136.2568     31.37942  -5.3359   0.2501  7.20    353.3013    434.6680     0.562     0.341  46.61
       148   1     829.6637     65.92511  -7.2973   0.0863  3.57    884.3464    448.0235     2.252     1.419  -1.26
       149   1     5648.761     58.27011  -9.3799   0.0112  3.50     34.3958    458.6750     1.679     1.537 -60.50
       150   1     120.1196     32.44342  -5.1990   0.2933  5.33    654.5854    444.1706     0.757     0.448 -70.39
       151   1     1798.967     54.97191  -8.1376   0.0332  3.53    468.4730    464.5988     1.596     1.441 -73.92
       152   1     188.5828     32.96255  -5.6888   0.1898  4.28   1533.1399    453.8176     0.790     0.678  37.42
       153   1     503.6198     58.56074  -6.7553   0.1263  5.10   1096.1396    461.9113     1.156     1.063  54.35
       154   1     1461.691     51.13182  -7.9121   0.0380  3.50    254.1115    472.0582     1.524     1.321 -72.83
       155   1     300.4543     47.69614  -6.1944   0.1724  5.22    724.6503    462.3787     1.116     0.728 -28.34
       156   1     145.0743     31.91586  -5.4040   0.2389  7.22   1223.6603    457.7005     0.565     0.339 -42.96
       157   1     2149.442     51.13182  -8.3308   0.0258  3.50    734.7728    472.9619     1.496     1.347 -38.58
       158   1      2825.51     54.03748  -8.6277   0.0208  3.50    922.8173    478.7596     1.544     1.447 -35.41
       159   1     948.7179      53.0866  -7.4428   0.0608  3.92   1276.8331    478.7934     1.380     1.256 -53.38
       160   1     170.7378     33.97702  -5.5808   0.2161  4.44   1168.0371    476.5136     0.813     0.676 -89.76
       161   1     20739.54     168.3795 -10.7920   0.0088  4.27    518.6295    533.7934     4.107     3.566  28.40
       162   1     1215.531     46.61609  -7.7119   0.0416  3.50   1070.4277    484.9557     1.365     1.226 -66.11
