#   1 KRON_RADIUS            Kron apertures in units of A or B                         
#   2 MAGERR_APER            RMS error vector for fixed aperture mag.                   [mag]
#   3 Y_IMAGE                Object position along y                                    [pixel]
#   4 X_IMAGE                Object position along x                                    [pixel]
#   5 THETA_IMAGE            Position angle (CCW/x)                                     [deg]
#   6 FLUX_APER              Flux vector within fixed circular aperture(s)              [count]
#   7 A_IMAGE                Profile RMS along major axis                               [pixel]
#   8 THRESHOLD              Detection threshold above background                       [count]
#   9 B_IMAGE                Profile RMS along minor axis                               [pixel]
#  10 FLUX_RADIUS            Fraction-of-light radii                                    [pixel]
#  11 FLUXERR_APER           RMS error vector for aperture flux(es)                     [count]
#  12 MAG_APER               Fixed aperture magnitude vector                            [mag]
#  13 NUMBER                 Running object number                                     
 3.50   0.0001    181.9938   1107.3826 -37.26 1.496253e-06     6.785 3.522043e-11     6.348      4.465 1.041636e-10  14.5625          1
 3.50   0.0008     53.5548     63.6502   4.23 1.418838e-07     6.934 3.522043e-11     6.192      5.193 1.042694e-10  17.1202          2
 3.50   0.0003     59.8014   1078.4595 -83.45 3.881415e-07     2.554 3.522043e-11     2.415      1.938 1.042694e-10  16.0275          3
 3.50   0.0051     16.5034    985.0604 -88.22 2.223507e-08     4.799 3.522043e-11     2.280      4.069 1.034199e-10  19.1324          4
 3.93   0.0158     24.7678    367.1761  -4.71 7.147402e-09     1.722 3.522043e-11     1.632      2.005 1.041636e-10  20.3646          5
 4.12   0.0514     23.8059    383.2164  49.49 2.202634e-09     1.542 3.522043e-11     1.514      2.323 1.041636e-10  21.6426          6
 4.03   0.0338     17.2888    384.4465 -58.33 3.326901e-09     1.676 3.522043e-11     1.488      2.065  1.03633e-10  21.1949          7
 3.50   0.0034     18.0675     91.2831 -28.21 3.329039e-08     1.946 3.522043e-11     1.912      1.913 1.037393e-10  18.6942          8
 3.50   0.0013     14.6264   1445.7336 -66.63 8.945961e-08     2.134 3.522043e-11     2.050      1.871 1.042694e-10  17.6209          9
 5.50   0.0807     14.4023    841.1321 -49.27 1.405411e-09     1.863 3.522043e-11     1.304      3.048 1.043751e-10  22.1305         10
 5.18   0.0931     15.0216   1563.0798  -2.57 1.215054e-09     1.198 3.522043e-11     1.047      1.873 1.041636e-10  22.2885         11
 5.34   0.0595     10.2187   1183.7399  89.81 1.903089e-09     1.305 3.522043e-11     1.143      1.917 1.042694e-10  21.8014         12
 5.60   0.0912      6.6641   1469.4839 -30.37 1.234748e-09     1.508 3.522043e-11     1.238      2.633 1.037393e-10  22.2711         13
 6.27   0.1027      5.6792    185.1633  82.00  1.09949e-09     1.350 3.522043e-11     1.298      2.978 1.039517e-10  22.3970         14
 3.80   0.0444      4.2202    145.2291  57.99 2.545421e-09     1.866 3.522043e-11     1.716      2.559 1.040577e-10  21.4856         15
 7.07   0.1581      3.4378    845.2756  -7.93 7.142736e-10     0.992 3.522043e-11     0.481      1.747 1.039517e-10  22.8653         16
 5.63   0.1029      2.6172    304.3736  -4.53 1.078704e-09     1.406 3.522043e-11     0.991      2.124 1.022404e-10  22.4177         17
 3.50   0.1110     18.0252   1215.2177 -40.21 1.018421e-09     1.156 3.522043e-11     0.819      1.595 1.040577e-10  22.4802         18
 3.88   0.0360     33.7623   1109.9857  66.96 3.142401e-09     2.300 3.522043e-11     1.545      2.721 1.041636e-10  21.2568         19
 5.68   0.1704     16.1449    195.0850 -44.59 6.589625e-10     0.864 3.522043e-11     0.649      1.679 1.034199e-10  22.9528         20
 5.50   0.0912     23.9005    698.8232  33.42 1.238646e-09     1.412 3.522043e-11     0.983      2.366 1.040577e-10  22.2676         21
 7.03   0.1091     24.8596   1453.8063  -4.23 1.038598e-09     1.206 3.522043e-11     1.085      3.180 1.043751e-10  22.4589         22
 4.75   0.0457     33.5553    326.9302  48.92 2.473273e-09     1.628 3.522043e-11     1.579      2.496 1.040577e-10  21.5168         23
 3.50   0.0003     80.1604    537.6137 -54.89 3.740692e-07     2.396 3.522043e-11     2.307      1.936 1.042694e-10  16.0676         24
 3.85   0.0441     38.7636   1170.4729  69.57 2.562758e-09     1.635 3.522043e-11     1.379      2.204 1.041636e-10  21.4782         25
 4.84   0.0470     37.7706   1521.1245  42.28 2.405958e-09     1.403 3.522043e-11     1.328      1.925 1.041636e-10  21.5468         26
 4.10   0.0581     44.1569    440.6383 -58.96 1.946534e-09     1.839 3.522043e-11     1.399      2.468 1.041636e-10  21.7768         27
 4.17   0.0418     42.1267    915.5358 -54.54 2.695276e-09     1.558 3.522043e-11     1.247      1.859 1.037393e-10  21.4235         28
 5.01   0.1231     38.9265   1226.2628 -44.52 9.148845e-10     1.361 3.522043e-11     0.871      1.882 1.037393e-10  22.5966         29
 4.19   0.0664     50.3917    265.3620 -63.74 1.706221e-09     1.601 3.522043e-11     1.513      2.438 1.042694e-10  21.9199         30
 5.70   0.1702     42.0946   1001.1355 -45.06 6.612065e-10     0.843 3.522043e-11     0.655      1.837  1.03633e-10  22.9492         31
 7.88   0.2169     43.8067    228.3916 -70.78 5.211276e-10     0.729 3.522043e-11     0.450      1.946 1.040577e-10  23.2076         32
 4.99   0.0667     50.1514   1435.4104  34.21 1.696625e-09     1.523 3.522043e-11     1.092      1.889 1.042694e-10  21.9260         33
 5.82   0.1365     47.5112   1430.5231  -8.43 8.272735e-10     0.966 3.522043e-11     0.825      1.863 1.039517e-10  22.7059         34
 6.76   0.1320     47.6919    666.0823 -73.49 8.546372e-10     1.005 3.522043e-11     0.745      2.450 1.038455e-10  22.6705         35
 6.39   0.1735     46.6384    474.2519 -18.96 6.533112e-10     0.944 3.522043e-11     0.652      1.756 1.043751e-10  22.9622         36
 3.50   0.0081     75.2120    128.0196  89.61 1.393987e-08     1.885 3.522043e-11     1.775      2.007 1.041636e-10  19.6394         37
 3.50   0.0748     65.6283   1147.9449  40.51  1.51269e-09     1.595 3.522043e-11     1.283      2.434 1.041636e-10  22.0506         38
 3.63   0.1633     58.1725   1241.8258  44.49 6.932709e-10     0.833 3.522043e-11     0.695      1.579 1.042694e-10  22.8977         39
 3.50   0.0002    121.8204    789.1588 -57.59 5.540479e-07     2.433 3.522043e-11     2.343      1.918 1.041636e-10  15.6411         40
 6.38   0.1584     66.2937   1516.4152 -81.30 7.126054e-10     1.024 3.522043e-11     0.473      1.803 1.039517e-10  22.8679         41
 3.66   0.0009    234.8418    403.8159 -42.65 1.244955e-07     9.712 3.522043e-11     8.163      7.620 1.041636e-10  17.2621         42
 5.21   0.1309     67.4789   1415.5292   3.73 8.598657e-10     0.907 3.522043e-11     0.861      1.560  1.03633e-10  22.6639         43
 3.50   0.0348     82.2179    421.6692 -56.27  3.25683e-09     1.795 3.522043e-11     1.666      2.299 1.042694e-10  21.2180         44
 3.50   0.0902     71.8430   1322.0925 -11.44 1.249274e-09     1.152 3.522043e-11     1.119      1.779 1.037393e-10  22.2584         45
 7.66   0.1161     69.4960     19.5179 -56.39 9.712571e-10     1.145 3.522043e-11     0.931      3.336 1.038455e-10  22.5317         46
 3.89   0.0254     90.7399    377.2209   8.60 4.465183e-09     2.479 3.522043e-11     2.300      3.249 1.042694e-10  20.8754         47
 3.77   0.0057     96.5844     56.1358 -25.19 1.994129e-08     2.025 3.522043e-11     1.928      2.060 1.042694e-10  19.2506         48
 3.50   0.0000    193.5544    318.1067 -66.28 2.359641e-06     3.309 3.522043e-11     2.734      1.933 1.037393e-10  14.0679         49
 3.50   0.0908     79.4387   1033.0938  33.39  1.24296e-09     1.274 3.522043e-11     0.985      1.736 1.039517e-10  22.2639         50
 6.42   0.1096     84.4559    932.3944  -8.12 1.033306e-09     1.707 3.522043e-11     1.312      3.819 1.042694e-10  22.4644         51
 6.01   0.0694     88.4099    758.9613  70.01 1.630537e-09     1.553 3.522043e-11     1.174      2.739 1.042694e-10  21.9692         52
 6.20   0.1462     85.2300   1560.0707  49.93 7.747696e-10     1.822 3.522043e-11     0.616      2.534 1.042694e-10  22.7771         53
 3.50   0.0931     87.8669   1359.5742  60.64 1.216045e-09     1.186 3.522043e-11     1.029      1.889 1.042694e-10  22.2876         54
 6.09   0.1009     87.8252    864.1128 -45.46 1.119853e-09     1.313 3.522043e-11     1.048      2.661 1.040577e-10  22.3771         55
 5.55   0.0792     91.7370   1045.4523  58.29 1.428068e-09     1.447 3.522043e-11     0.991      2.158 1.041636e-10  22.1131         56
 4.48   0.0519     91.4395    495.8049 -51.00 2.179773e-09     1.304 3.522043e-11     1.135      1.870 1.042694e-10  21.6540         57
 4.39   0.0620     95.3138   1076.1998  62.92  1.82771e-09     1.621 3.522043e-11     1.220      2.286 1.042694e-10  21.8452         58
 3.69   0.0285     98.0813    453.0175 -16.09 3.972032e-09     2.374 3.522043e-11     1.455      2.528 1.041636e-10  21.0025         59
 7.59   0.1526     89.1223    812.0873 -30.34 7.396192e-10     1.192 3.522043e-11     0.609      2.618 1.039517e-10  22.8275         60
 5.82   0.1225     94.8927    389.4163  18.91 9.215408e-10     1.117 3.522043e-11     0.875      1.876 1.039517e-10  22.5887         61
 6.89   0.1442    102.8238    519.5135  -7.10  7.83452e-10     1.285 3.522043e-11     0.690      2.345 1.040577e-10  22.7650         62
 6.06   0.0878    114.0112    270.5333  65.15 1.288969e-09     1.695 3.522043e-11     1.400      3.169 1.041636e-10  22.2244         63
 3.79   0.0795    115.1614    415.6245  34.91 1.422325e-09     1.493 3.522043e-11     1.285      2.254 1.040577e-10  22.1175         64
 6.23   0.1451    107.4839   1422.2188 -48.16 7.782698e-10     1.071 3.522043e-11     0.714      1.831 1.039517e-10  22.7722         65
 6.64   0.1830    107.7240    181.5535 -80.89 6.164241e-10     1.003 3.522043e-11     0.477      1.888 1.038455e-10  23.0253         66
 6.08   0.1109    108.1668    862.9700  87.32 1.021509e-09     0.879 3.522043e-11     0.749      1.650 1.042694e-10  22.4769         67
 5.87   0.1213    107.0281   1099.8956 -10.21 9.297054e-10     1.143 3.522043e-11     0.733      2.122 1.038455e-10  22.5791         68
 5.06   0.1322    110.7916   1514.8485  -6.11 8.563271e-10     0.899 3.522043e-11     0.847      1.672 1.042694e-10  22.6684         69
 5.14   0.0685    117.4975     66.6616  18.32  1.64022e-09     1.897 3.522043e-11     1.196      2.731 1.034199e-10  21.9627         70
 3.50   0.0004    162.3189   1468.3063 -56.16 3.165065e-07     2.344 3.522043e-11     2.258      1.894 1.039517e-10  16.2490         71
 3.50   0.0753    117.0433    990.8805  31.09 1.499808e-09     1.209 3.522043e-11     1.205      1.820 1.039517e-10  22.0599         72
 5.70   0.0826    117.8415    154.1458  46.22  1.37039e-09     1.180 3.522043e-11     0.993      2.041 1.042694e-10  22.1579         73
 3.83   0.0770    126.3654    493.9889 -10.03 1.470042e-09     1.690 3.522043e-11     1.080      2.291 1.041636e-10  22.0817         74
 3.90   0.0515    131.3991    418.2536 -47.46 2.197376e-09     1.328 3.522043e-11     1.279      1.983 1.042694e-10  21.6452         75
 6.43   0.1072    129.0447    885.6586  63.46 1.056218e-09     1.207 3.522043e-11     0.940      2.607 1.042694e-10  22.4406         76
 6.09   0.1342    127.9856   1478.7462   1.40 8.445888e-10     0.916 3.522043e-11     0.755      1.853 1.043751e-10  22.6834         77
 6.67   0.0855    142.8879    886.5015  65.22 1.314613e-09     1.569 3.522043e-11     1.204      3.587 1.035265e-10  22.2030         78
 3.50   0.0015    170.3011    877.2668  87.07  7.35265e-08     2.141 3.522043e-11     2.123      1.906  1.03633e-10  17.8339         79
 6.51   0.1540    135.8349     99.4756  -4.33 7.336344e-10     1.013 3.522043e-11     0.728      1.976 1.040577e-10  22.8363         80
 4.06   0.0470    146.6661    354.0066 -38.40 2.412091e-09     1.632 3.522043e-11     1.348      2.108 1.043751e-10  21.5440         81
 5.22   0.0581    151.2717   1280.3529  -2.92 1.943506e-09     1.365 3.522043e-11     1.294      2.258 1.039517e-10  21.7785         82
 3.50   0.0786    155.6839     82.5474  82.51 1.430984e-09     1.392 3.522043e-11     1.086      1.821  1.03633e-10  22.1109         83
 4.04   0.0183    165.0188   1445.8256  36.20 6.170044e-09     1.794 3.522043e-11     1.744      2.235 1.041636e-10  20.5243         84
 5.23   0.0973    155.7495   1580.0179  34.23  1.16553e-09     1.263 3.522043e-11     0.996      2.448 1.043751e-10  22.3337         85
 3.50   0.0216    166.8039    104.4989 -39.09 5.227518e-09     1.556 3.522043e-11     1.497      1.916 1.038455e-10  20.7043         86
 6.50   0.1796    155.1303    823.4882   7.42 6.274447e-10     0.912 3.522043e-11     0.585      2.099 1.037393e-10  23.0061         87
 5.10   0.0723    165.9249    576.4904 -76.83 1.562196e-09     1.563 3.522043e-11     1.280      2.324 1.039517e-10  22.0157         88
 7.98   0.0939    166.8519   1055.9596 -52.47 1.206529e-09     1.706 3.522043e-11     1.228      6.298 1.042694e-10  22.2962         89
 7.25   0.1418    160.2816    492.8344  69.03 7.967543e-10     0.917 3.522043e-11     0.674      2.139 1.040577e-10  22.7467         90
 4.34   0.0440    169.4501   1368.8391  61.54 2.574648e-09     1.416 3.522043e-11     1.332      1.919 1.042694e-10  21.4732         91
 4.51   0.1083    165.3952   1198.0385  11.32 1.045197e-09     1.114 3.522043e-11     0.877      1.580 1.042694e-10  22.4520         92
 4.69   0.0674    169.1122    651.3318  24.29 1.672134e-09     1.342 3.522043e-11     1.110      2.056 1.037393e-10  21.9418         93
 3.87   0.0455    180.0683    575.1193  22.70  2.47364e-09     2.058 3.522043e-11     1.637      2.733 1.037393e-10  21.5167         94
 6.69   0.1022    176.2536   1200.9447 -66.09 1.108861e-09     1.473 3.522043e-11     1.195      3.120 1.043751e-10  22.3878         95
 4.80   0.0402    186.7878   1354.9534  11.13 2.815826e-09     1.808 3.522043e-11     1.778      2.829 1.042694e-10  21.3760         96
 7.33   0.1947    173.7570     32.5618  69.50 5.809386e-10     0.772 3.522043e-11     0.444      1.478 1.041636e-10  23.0897         97
 3.50   0.0001    259.7700    997.4595 -45.88 9.503326e-07     2.656 3.522043e-11     2.457      1.913 1.041636e-10  15.0553         98
 3.62   0.0065    210.7415    827.6367  -7.81 1.751169e-08     5.190 3.522043e-11     2.556      4.359 1.042694e-10  19.3917         99
 3.57   0.0145    192.5612   1350.5186  -1.26 7.810376e-09     1.747 3.522043e-11     1.671      1.971 1.039517e-10  20.2683        100
 3.50   0.0000    312.3827    439.4107 -48.97 2.732826e-06     3.021 3.522043e-11     2.785      1.970 1.041636e-10  13.9085        101
 7.28   0.0801    190.1767   1027.8345 -78.64 1.410864e-09     1.337 3.522043e-11     1.169      4.305 1.040577e-10  22.1263        102
 3.73   0.0115    230.0405    562.2480 -14.57 9.853516e-09     4.292 3.522043e-11     3.859      5.346 1.042694e-10  20.0160        103
 5.30   0.0154    208.8254    349.8459  40.51 7.334416e-09     2.687 3.522043e-11     1.947      3.433 1.042694e-10  20.3366        104
 3.50   0.0076    206.7229    549.0727 -73.88 1.479237e-08     1.798 3.522043e-11     1.755      1.948 1.037393e-10  19.5749        105
 7.48   0.1535    186.9650    837.4592  27.83 7.376426e-10     1.042 3.522043e-11     0.654      2.662 1.042694e-10  22.8304        106
 3.50   0.0002    265.9336     67.5535 -47.47 7.095451e-07     2.600 3.522043e-11     2.493      1.941 1.041636e-10  15.3726        107
 6.10   0.0593    195.1941    268.1110   8.93  1.90705e-09     2.239 3.522043e-11     1.231      3.517 1.041636e-10  21.7991        108
 4.83   0.0358    203.5535    250.9252  69.15 3.153267e-09     1.510 3.522043e-11     1.491      2.244 1.039517e-10  21.2531        109
 6.15   0.1020    195.9597    449.3375 -43.33 1.109425e-09     1.147 3.522043e-11     0.960      2.368 1.041636e-10  22.3873        110
 3.50   0.0076    212.1476   1306.1675 -81.36 1.490233e-08     1.838 3.522043e-11     1.801      1.954 1.041636e-10  19.5669        111
 4.27   0.0274    210.9894    684.8183 -76.83 4.125315e-09     1.867 3.522043e-11     1.527      2.328 1.041636e-10  20.9614        112
 5.54   0.0258    222.4612    345.8315 -33.50 4.382305e-09     2.433 3.522043e-11     2.307      4.188 1.042694e-10  20.8957        113
 5.85   0.0995    205.8522    936.8450 -44.06 1.138342e-09     1.364 3.522043e-11     0.921      2.373 1.042694e-10  22.3593        114
 3.50   0.0707    209.2479   1225.6992  52.89 1.592833e-09     1.307 3.522043e-11     1.182      1.898  1.03633e-10  21.9946        115
 5.80   0.1220    206.1581    183.5764  40.48 9.280708e-10     1.065 3.522043e-11     0.725      1.748 1.042694e-10  22.5810        116
 3.50   0.0065    223.8702   1226.1047  27.06  1.73553e-08     1.833 3.522043e-11     1.803      1.942 1.039517e-10  19.4014        117
 5.20   0.0590    217.7645    741.2256 -55.72 1.915244e-09     1.992 3.522043e-11     1.385      3.031 1.040577e-10  21.7944        118
 6.47   0.1387    206.1061    942.2924  -9.74 8.124569e-10     1.064 3.522043e-11     0.682      2.132 1.037393e-10  22.7255        119
 3.50   0.0988    217.7309    882.5818 -44.45 1.145977e-09     2.207 3.522043e-11     0.944      2.357 1.042694e-10  22.3521        120
 3.53   0.0186    222.5676    774.8543 -21.40 6.097139e-09     1.683 3.522043e-11     1.526      1.900 1.042694e-10  20.5372        121
 3.98   0.0142    243.9709    112.8099 -82.37 7.964613e-09     2.781 3.522043e-11     2.126      3.046 1.041636e-10  20.2471        122
 5.21   0.1536    215.3313    793.1174  10.89 7.333021e-10     1.258 3.522043e-11     0.577      1.937 1.037393e-10  22.8368        123
 3.69   0.0056    255.4174    613.0841 -39.56 2.010093e-08     3.203 3.522043e-11     2.735      3.228 1.040577e-10  19.2420        124
 7.11   0.0913    227.2231    324.1738 -50.49 1.240483e-09     1.984 3.522043e-11     1.463      5.361 1.042694e-10  22.2660        125
 6.62   0.1609    218.1372    492.1341 -51.07 7.018236e-10     0.820 3.522043e-11     0.688      1.948 1.039517e-10  22.8844        126
 6.32   0.2175    219.2078   1506.4427  69.16 5.206113e-10     0.732 3.522043e-11     0.453      1.404 1.042694e-10  23.2087        127
 6.17   0.0622    230.0553    548.2059 -63.17 1.821286e-09     1.571 3.522043e-11     1.201      2.969 1.042694e-10  21.8491        128
 3.50   0.0298    239.1828    838.7829 -11.69 3.794386e-09     1.856 3.522043e-11     1.764      2.485 1.042694e-10  21.0521        129
 5.05   0.1360    233.4641   1553.4255  75.11 8.328953e-10     0.927 3.522043e-11     0.913      1.784 1.042694e-10  22.6985        130
 5.26   0.0313    251.5770   1372.8207  55.69 3.608654e-09     2.004 3.522043e-11     1.818      3.165 1.041636e-10  21.1066        131
 6.23   0.1078    239.4029   1478.8386 -30.81 1.050047e-09     1.207 3.522043e-11     1.058      2.539 1.042694e-10  22.4470        132
 3.50   0.0007    287.5186   1486.4594 -75.34 1.666303e-07     2.292 3.522043e-11     2.273      1.930 1.035265e-10  16.9456        133
 5.38   0.0346    250.5008    107.5044  73.06  3.24792e-09     1.552 3.522043e-11     1.452      2.723 1.035265e-10  21.2210        134
 3.50   0.0000    351.4099    890.8208 -42.43 2.488142e-06     2.909 3.522043e-11     2.706      1.915 1.041636e-10  14.0103        135
 6.71   0.1048    250.5798   1550.7551  75.65 1.080984e-09     1.307 3.522043e-11     0.987      2.645 1.042694e-10  22.4155        136
 4.75   0.0929    248.6709   1414.7164  28.65 1.214257e-09     1.445 3.522043e-11     1.202      2.464 1.038455e-10  22.2892        137
 3.50   0.0000    351.4268   1345.8776 -46.86 2.359997e-06     2.857 3.522043e-11     2.668      1.928 1.041636e-10  14.0677        138
