#   1 NUMBER                 Running object number                                     
#   2 EXT_NUMBER             FITS extension number                                     
#   3 FLUX_BEST              Best of FLUX_AUTO and FLUX_ISOCOR                          [count]
#   4 FLUXERR_BEST           RMS error for BEST flux                                    [count]
#   5 MAG_BEST               Best of MAG_AUTO and MAG_ISOCOR                            [mag]
#   6 MAGERR_BEST            RMS error for MAG_BEST                                     [mag]
#   7 KRON_RADIUS            Kron apertures in units of A or B                         
#   8 X_IMAGE                Object position along x                                    [pixel]
#   9 Y_IMAGE                Object position along y                                    [pixel]
#  10 A_IMAGE                Profile RMS along major axis                               [pixel]
#  11 B_IMAGE                Profile RMS along minor axis                               [pixel]
#  12 THETA_IMAGE            Position angle (CCW/x)                                     [deg]
         1   1     582126.2     173.9228  13.6422   0.0003  3.50   1107.5574    183.5872     5.235     4.880 -24.92
         2   1      42557.3     205.0076  16.4823   0.0052  4.07     63.6141     54.7853     5.365     4.865  10.86
         3   1     6156.764     118.5781  18.5814   0.0209  4.05    984.9714     18.2255     4.233     2.082 -89.63
         4   1      3611.55     72.40131  19.1605   0.0218  4.10     91.2174     19.4714     1.811     1.786 -50.22
         5   1     10358.06     69.35603  18.0166   0.0073  3.50   1445.6405     16.2575     2.069     1.951  10.92
         6   1     448.6918     52.09107  21.4249   0.1261  5.88    145.2244      5.8206     1.171     0.700  -0.38
         7   1     48285.14     81.42189  16.3452   0.0018  3.50   1078.3888     61.4053     2.432     2.332  59.86
         8   1     183.8491     40.04273  22.3936   0.2365  7.12   1183.2153     11.4046     0.760     0.448  19.10
         9   1     515.8887     55.52927  21.2734   0.1169  5.38    384.3959     19.2027     1.234     0.891  18.99
        10   1     1027.855     84.21431  20.5250   0.0890  6.15    366.8643     26.2155     1.520     1.276  22.58
        11   1      457.124     75.32357  21.4047   0.1789  8.12    382.6800     25.4832     1.089     0.824  34.63
        12   1     606.7238     70.89503  21.0973   0.1269  6.45   1110.6578     36.5190     1.297     0.966 -49.38
        13   1     515.7565     87.44759  21.2737   0.1841  6.19    326.7798     34.8941     1.759     1.173  -6.17
        14   1     45892.11     81.42189  16.4004   0.0019  3.50    537.4344     81.5319     2.423     2.339 -10.68
        15   1     347.3281     52.09107  21.7029   0.1629  6.57   1170.5585     40.7102     1.270     0.507  40.85
        16   1     250.3938      41.5543  22.0582   0.1802  5.84   1521.2733     40.0144     0.741     0.661  85.98
        17   1      252.799     54.97117  22.0478   0.2362  5.96    915.1636     44.3193     1.037     0.830 -57.46
        18   1     224.5066     38.47181  22.1767   0.1861  8.83    440.3448     45.6943     0.570     0.337  43.15
        19   1     1550.209     62.33145  20.0788   0.0437  3.86    128.1458     76.6940     1.719     1.565 -36.54
        20   1     1004.912     120.2565  20.5495   0.1300  6.41    376.7003     91.3006     2.278     1.590  59.94
        21   1     560.8573     72.18805  21.1826   0.1398  5.67    421.1942     84.3876     1.543     1.097 -71.73
        22   1     69004.64     83.84736  15.9576   0.0013  3.50    788.9817    123.3941     2.490     2.407   1.93
        23   1     2414.793     73.24814  19.5976   0.0329  4.29     56.0174     98.1544     1.876     1.626  -2.93
        24   1     543.6932     81.79972  21.2164   0.1634  6.17    452.8300     99.8754     1.469     1.252  11.31
        25   1     271.4502     46.45912  21.9706   0.1859  5.78    495.7601     92.9686     0.890     0.757  -1.84
        26   1     210.7896     47.11815  22.2452   0.2428  8.06   1075.7946     97.6176     0.767     0.445  18.16
        27   1     247.1462     55.25093  22.0724   0.2428  7.50    990.2148    118.7651     0.770     0.712  56.09
        28   1     297978.6     93.57959  14.3693   0.0003  3.50    317.9610    195.1572     2.782     2.657 -41.25
        29   1      39034.7     77.93905  16.5762   0.0022  3.50   1468.2515    163.8908     2.301     2.243 -11.43
        30   1     145.0553     46.78979  22.6509   0.3503  8.09    418.1811    132.3931     0.751     0.447  19.00
        31   1     8788.279     74.70699  18.1950   0.0092  3.64    877.2230    171.7732     2.117     2.046 -67.73
        32   1     49069.48     244.7071  16.3278   0.0054  4.14    403.5941    236.5317     6.506     5.518 -41.84
        33   1     252.3915     37.25017  22.0496   0.1603  6.41    353.9936    148.9917     0.620     0.600 -89.87
        34   1     127.7789     28.31448  22.7886   0.2406  5.04   1280.5729    152.7571     0.724     0.458  70.56
        35   1     586.4182     49.97635  21.1343   0.0926  3.57    104.0227    167.9652     1.477     1.352 -78.60
        36   1     824.7416     89.36591  20.7640   0.1177  6.30   1445.8739    166.7165     1.482     1.386  25.89
        37   1     1486.243     84.03104  20.1246   0.0614  5.49    325.4615    173.1771     1.587     1.503  16.30
        38   1    -42.31702      31.4121  99.0000  99.0000  0.00    634.5322    161.5322     0.509     0.489  45.00
        39   1     347.2073     59.80685  21.7033   0.1871  6.45   1368.4978    170.4766     0.962     0.894   1.76
        40   1     178.1708     36.41298  22.4277   0.2219  6.49    651.2307    170.4273     0.769     0.448  19.56
        41   1     527.2828     88.14999  21.2497   0.1816  7.88    575.0485    181.2506     1.588     0.819  33.93
        42   1     1036.578     73.87689  20.5158   0.0774  5.32   1350.5676    194.2067     1.471     1.371 -61.81
        43   1     478.1459     61.33408  21.3559   0.1393  6.62   1354.9641    188.1914     1.032     0.844  38.79
        44   1     5126.631     140.1495  18.7802   0.0297  4.60    827.3505    212.4507     4.311     2.212 -12.74
        45   1     1858.773     77.74098  19.8817   0.0454  4.85    548.9967    208.1533     1.728     1.561 -56.60
        46   1     173.6721     29.90343  22.4555   0.1870  5.72    268.7589    196.9942     0.669     0.428 -89.70
        47   1     959.5404     74.08529  20.5996   0.0838  4.64    349.6559    210.1383     1.790     1.474  53.37
        48   1     1648.288     54.97117  20.0122   0.0362  3.50   1306.0121    213.7668     1.673     1.542  -5.52
        49   1     5047.939     182.9097  18.7970   0.0394  5.57    561.9375    231.9906     3.530     3.154 -29.90
        50   1      88612.4     86.38327  15.6860   0.0011  3.50     67.5887    267.4318     2.519     2.455   4.04
        51   1     415.9542     59.80685  21.5072   0.1561  6.26    250.8450    205.3241     1.499     0.627  36.23
        52   1     560.4701     77.34332  21.1834   0.1499  5.22    684.2392    212.3623     1.589     1.414 -21.56
        53   1     105787.1     85.48623  15.4937   0.0009  3.50    997.3770    261.3211     2.487     2.473  -5.15
        54   1     2127.987     56.35606  19.7349   0.0288  3.62   1226.0276    225.6275     1.638     1.513  56.38
        55   1     967.1212     128.5596  20.5911   0.1444  8.63   1122.9299    224.0614     1.885     1.218  71.23
        56   1     736.4305     82.73675  20.8870   0.1220  5.20    345.2687    223.4958     1.862     1.400  38.99
        57   1     769.1244     65.46805  20.8398   0.0924  4.84    774.7049    224.2253     1.485     1.274 -64.77
        58   1     1635.085     107.6752  20.0209   0.0715  5.40    112.9577    245.7517     2.269     1.821 -84.19
        59   1     4033.149     116.6115  19.0407   0.0314  4.76    612.8062    256.8083     2.763     2.241 -31.38
        60   1      688.783     100.2607  20.9596   0.1581  6.68    838.1740    240.4640     1.587     1.461   3.11
        61   1     860.7277     84.57967  20.7176   0.1067  6.57   1372.6572    253.3820     1.676     1.007 -77.44
        62   1     364137.9     92.41913  14.1516   0.0003  3.50    439.4230    313.6555     2.726     2.645 -29.46
        63   1     388.6216     41.38091  21.5810   0.1156  7.15    107.6562    251.7136     1.286     0.961 -47.45
        64   1     217.2803     47.76809  22.2122   0.2388  7.46   1352.0001    254.2400     0.825     0.505  52.98
        65   1     20858.54     75.11861  17.2566   0.0039  3.50   1486.3666    289.1064     2.197     2.143  -0.24
        66   1     4609.062     68.00919  18.8958   0.0160  3.69   1522.2140    283.4656     1.863     1.834  34.16
        67   1     160.7977     40.42592  22.5391   0.2730  8.03    123.0000    266.9816     0.858     0.289  90.00
        68   1      443.088     69.35603  21.4386   0.1700  6.59   1273.7917    272.2896     1.215     0.927   3.52
        69   1     15179.66     75.11861  17.6016   0.0054  3.50    201.6470    304.5827     2.214     2.163   7.61
        70   1     321737.8     92.41913  14.2860   0.0003  3.50    890.7000    352.8533     2.708     2.638 -41.09
        71   1     60654.29     80.85184  16.0976   0.0014  3.50    905.3373    320.2001     2.371     2.336  17.94
        72   1     1812.206     61.58494  19.9093   0.0369  3.50    515.0054    291.1290     1.867     1.704  -4.76
        73   1     310625.5     92.08488  14.3242   0.0003  3.50   1345.7853    352.8833     2.672     2.630 -27.88
        74   1     1865.384     62.57831  19.8779   0.0364  3.89   1327.5559    295.5385     1.682     1.633  16.46
        75   1     983.5667      48.6272  20.5728   0.0537  5.59   1475.5228    294.7319     1.490     1.410 -32.70
        76   1     1122.538     113.6656  20.4293   0.1100  5.89   1413.5488    298.9774     2.281     1.700 -31.73
        77   1     10060.59     71.97416  18.0482   0.0078  3.50    697.2145    323.5643     2.098     2.084  48.90
        78   1     744.4962     62.08361  20.8751   0.0906  4.10    563.4363    303.5893     1.634     1.445 -14.17
        79   1     167.0941     36.41298  22.4974   0.2367  8.31    247.3226    294.2922     0.554     0.344 -43.23
        80   1     763.3594     95.85838  20.8480   0.1364  5.61    641.3190    322.5241     1.952     1.535  77.61
        81   1     454.0394      61.0822  21.4120   0.1461  8.04     85.7015    310.1534     1.131     0.517 -35.38
        82   1     2107.975     92.75217  19.7451   0.0478  5.15    595.4161    328.8730     1.940     1.713 -35.23
        83   1     7109.287     88.67313  18.4252   0.0135  4.20    867.0420    347.9107     2.264     2.015  25.16
        84   1     281.1241     63.31311  21.9325   0.2446  6.23   1545.8273    331.3643     1.283     0.835  52.86
        85   1     195.6068     38.47181  22.3263   0.2136  5.89    955.5109    326.3526     0.926     0.478   0.07
        86   1     344.3395     57.97426  21.7123   0.1828  6.09     93.5791    333.6950     0.971     0.940  55.69
        87   1       331.17     52.38621  21.7547   0.1718  5.78   1439.6562    336.5270     1.042     0.821 -34.70
        88   1     5390.219     72.82596  18.7258   0.0147  3.69    431.7284    357.2689     2.062     1.955 -73.63
        89   1     813.6549     69.35603  20.7787   0.0926  5.25     54.6837    351.3244     1.405     1.282  61.37
        90   1     10435.57     75.11861  18.0085   0.0078  3.71    760.9843    369.6347     2.101     2.028  22.47
        91   1     51440.35     81.61103  16.2765   0.0017  3.50    231.3483    396.6438     2.424     2.344 -28.26
        92   1     1956.282     84.03104  19.8262   0.0466  4.89   1500.1429    362.7214     1.894     1.593   0.84
        93   1     3764.966     62.33145  19.1154   0.0180  3.54    442.7167    368.9449     1.817     1.730  23.76
        94   1     271.0547     71.75964  21.9721   0.2875  6.61   1033.3591    362.1609     1.241     0.996 -58.97
        95   1     306.4988     45.45267  21.8387   0.1610  5.00    533.3430    361.2872     1.219     0.716  -8.77
        96   1      426.058     57.97426  21.4811   0.1478  7.19   1415.9182    364.6555     0.961     0.690 -70.00
        97   1     694.8182     59.32479  20.9501   0.0927  6.32    753.3804    376.5251     2.021     1.175  45.42
        98   1     266.1332     71.11217  21.9920   0.2902  5.75   1083.9891    375.3518     1.453     1.092 -64.08
        99   1     91.76562     54.97117  23.1481   0.6506  5.86      1.5932    381.5696     2.024     0.637 -89.37
       100   1     729.7302     72.40131  20.8969   0.1077  6.06    992.6714    374.2666     1.283     1.155  16.70
       101   1     203.8461     60.82927  22.2815   0.3241  6.92     72.0737    371.3849     1.328     0.618  -4.98
       102   1     187.1833     44.42342  22.3741   0.2577  7.71    209.7980    370.4338     0.757     0.448 -20.40
       103   1     8275.419     68.23551  18.2603   0.0090  3.50    354.4694    399.6199     2.028     1.927  17.69
       104   1     7514.324     66.40335  18.3651   0.0096  3.50   1461.0906    398.5513     1.985     1.894  -9.16
       105   1     220.3135     54.68999  22.1972   0.2696  5.48     67.2584    384.9274     1.574     0.663  84.64
       106   1     121.1329     30.91739  22.8466   0.2772  5.96     87.0265    376.7703     0.694     0.420   1.14
       107   1     46579.37     79.50581  16.3843   0.0019  3.50    433.2188    421.0826     2.332     2.293   2.48
       108   1     362.2563     58.50372  21.6572   0.1754  6.76    125.8206    382.1244     0.976     0.759 -25.56
       109   1     1741.524     63.06913  19.9525   0.0393  4.03   1088.6277    395.3357     1.645     1.542  16.80
       110   1     22482.82     75.32357  17.1752   0.0036  3.50    837.3096    417.0440     2.185     2.170  10.22
       111   1     784.6407     87.79948  20.8181   0.1215  7.52    626.6414    397.2802     1.368     1.024 -84.28
       112   1      168.597      26.6309  22.4877   0.1715  5.78   1196.0000    390.9907     0.849     0.289  90.00
       113   1     252.0509     77.74098  22.0511   0.3350  6.11      1.9529    413.6238     2.734     0.909  88.05
       114   1     360.1979     46.12608  21.6634   0.1391  4.90    977.6585    397.7170     1.233     0.712 -45.77
       115   1     619.7703      83.1086  21.0742   0.1456  7.33    526.4940    405.2974     1.299     1.026  83.57
       116   1     145751.6     87.09426  15.1457   0.0006  3.50    807.5491    462.6601     2.554     2.475 -14.20
       117   1     4081.832     61.83478  19.0276   0.0165  3.50    926.3489    425.5665     1.842     1.791  46.72
       118   1     16871.67     75.11861  17.4869   0.0048  3.50    252.0300    439.4121     2.198     2.152   6.63
       119   1     282.6312     59.80685  21.9267   0.2298  6.39    281.9646    408.1781     1.164     0.805  29.19
       120   1    -4.999023     32.37885  99.0000  99.0000  0.00    943.7681    403.4152     0.745     0.452 -19.28
       121   1     1293.478     90.22439  20.2754   0.0758  5.73    159.3221    422.2335     1.823     1.388  51.63
       122   1     357.7546     63.55616  21.6708   0.1929  7.68    299.5127    426.9838     1.409     0.499  88.57
       123   1     325.2761     51.19546  21.7742   0.1709  7.33   1204.3013    419.4578     1.015     0.481  -8.30
       124   1     613.0347     81.42189  21.0861   0.1442  7.02   1179.8237    428.1476     1.268     1.091  43.93
       125   1     1341.785     73.24814  20.2356   0.0593  5.03   1421.9890    434.3694     1.563     1.401 -10.91
       126   1     333.5225     48.40929  21.7470   0.1576  8.46    133.4180    424.2213     0.751     0.455  71.45
       127   1     207.6619     36.83395  22.2614   0.1926  5.94   1580.9537    421.4902     0.778     0.499   2.69
       128   1     295.7296     35.98708  21.8775   0.1322  8.25    136.3273    421.6680     0.574     0.335  45.21
       129   1     214.8546     36.83395  22.2244   0.1862  7.28   1063.4724    425.5192     0.503     0.496  46.62
       130   1     670.2161      61.0822  20.9892   0.0990  8.39    718.8471    431.2661     1.078     0.508  67.24
       131   1      8931.71     197.9679  18.1774   0.0241  4.91    850.2258    469.1449     7.532     2.223  21.77
       132   1     5156.083     79.50581  18.7740   0.0167  4.03     21.3153    451.8586     2.088     1.943  -0.20
       133   1     558.6163     70.01974  21.1870   0.1361  5.98    151.0912    435.1284     1.240     1.134  52.00
       134   1      735.488     67.55428  20.8883   0.0997  5.34    305.5745    441.5390     1.441     1.138 -51.09
       135   1     1049.774      76.1379  20.5020   0.0788  5.43    122.1028    446.8850     1.505     1.355  85.16
       136   1      153.113     27.76464  22.5923   0.1969  6.19    353.6779    435.6658     0.573     0.336 -45.55
       137   1     5859.109     74.50034  18.6352   0.0138  3.93     34.4913    459.3049     1.983     1.870 -43.25
       138   1     941.6968     86.20461  20.6200   0.0994  5.27    883.4819    448.5699     2.147     1.280   7.79
       139   1     221.7047     56.62897  22.1903   0.2774  8.31    654.3727    445.0175     1.075     0.452 -25.27
       140   1     1804.772     59.80685  19.9137   0.0360  3.72    468.4330    465.1295     1.736     1.538  46.31
       141   1     287.7026     45.79061  21.9074   0.1728  5.43   1533.5862    454.5111     0.992     0.775   2.58
       142   1     636.2272     45.79061  21.0457   0.0782  3.81   1096.4277    462.4622     1.423     1.022  13.23
       143   1     131.7334     28.31448  22.7555   0.2334  6.24   1224.3202    454.6659     0.572     0.336  45.64
       144   1     2339.756     69.35603  19.6319   0.0322  4.18    734.7418    473.5637     1.675     1.672 -32.10
       145   1     418.0455     61.33408  21.5017   0.1593  7.76    723.9955    463.4885     1.225     0.497 -62.96
       146   1     1833.194     64.51918  19.8968   0.0382  4.23    254.3179    473.0175     1.614     1.461   2.68
       147   1     2964.088     58.76665  19.3751   0.0215  3.50    922.8689    479.3951     1.738     1.689  50.12
       148   1     1223.418     65.70312  20.3358   0.0583  4.25   1276.8654    479.2148     1.668     1.470  88.29
       149   1     189.2581     42.28983  22.3621   0.2427  6.15   1198.3262    468.1648     0.748     0.647 -25.50
       150   1     138.0873     35.98708  22.7044   0.2830  8.21    561.6643    466.6413     0.589     0.326 -45.84
       151   1     22079.73     179.5065  17.1948   0.0088  4.30    518.4934    534.3708     4.541     3.949  33.99
       152   1     692.3623     87.44759  20.9539   0.1372  5.41    839.4063    489.4281     2.624     1.021 -82.78
       153   1     3011.959     123.7942  19.3577   0.0446  5.00     82.7204    497.6219     2.586     2.443 -14.39
       154   1     2544.001     111.4742  19.5410   0.0476  4.50   1186.5588    497.1445     2.872     2.197 -19.25
       155   1      239.812     45.79061  22.1051   0.2074  5.27   1167.6362    477.6234     1.409     0.553 -32.52
       156   1     1253.732     50.28389  20.3093   0.0436  3.50   1070.7618    485.5692     1.528     1.376 -13.26
       157   1     242.5905     24.20465  22.0926   0.1084  3.50    682.8082    480.6513     0.846     0.613 -28.81
       158   1     154.7902     30.91739  22.5804   0.2169  5.97   1309.2524    483.2269     0.842     0.349  17.63
       159   1     12041.82     73.24814  17.8531   0.0066  3.50   1302.1998    513.8845     2.242     2.029 -12.26
       160   1     151.1583     34.23054  22.6062   0.2459  7.02    424.4973    490.9982     0.783     0.319  57.39
       161   1     1411.331     86.02557  20.1807   0.0662  4.94    762.6536    505.6879     1.866     1.696  29.68
       162   1     395.0878     60.06409  21.5630   0.1651  6.04    366.5008    499.2488     1.260     0.822  48.61
