#   1 KRON_RADIUS            Kron apertures in units of A or B                         
#   2 MAGERR_APER            RMS error vector for fixed aperture mag.                   [mag]
#   3 Y_IMAGE                Object position along y                                    [pixel]
#   4 X_IMAGE                Object position along x                                    [pixel]
#   5 THETA_IMAGE            Position angle (CCW/x)                                     [deg]
#   6 FLUX_APER              Flux vector within fixed circular aperture(s)              [count]
#   7 A_IMAGE                Profile RMS along major axis                               [pixel]
#   8 THRESHOLD              Detection threshold above background                       [count]
#   9 B_IMAGE                Profile RMS along minor axis                               [pixel]
#  10 FLUX_RADIUS            Fraction-of-light radii                                    [pixel]
#  11 FLUXERR_APER           RMS error vector for aperture flux(es)                     [count]
#  12 MAG_APER               Fixed aperture magnitude vector                            [mag]
#  13 NUMBER                 Running object number                                     
 3.77   0.0006     52.3656     61.8381  -4.11     152003.3     5.767           25     5.156     10.446     83.79352  15.0954          1
 3.50   0.0036     15.7502    983.4642 -87.95     25083.91     4.430           25     1.919      6.639     83.76508  17.0515          2
 3.50   0.0045     17.0166     89.5020 -27.30     20374.69     1.584           25     1.535      2.678     83.75559  17.2773          3
 3.50   0.0017     13.8130   1444.2402 -50.19     52877.43     1.667           25     1.653      2.635     83.79352  16.2418          4
 4.41   0.0450     16.2316    382.9453 -68.30     2023.088     1.179           25     1.108      2.545       83.803  19.7850          5
 6.18   0.0830     12.9454    839.5240 -53.69     1095.848     1.159           25     0.755      3.642     83.74611  20.4506          6
 6.27   0.1859      5.8499   1467.8611 -42.10     467.1044     0.830           25     0.681      2.599     79.97167  21.3765          7
 4.92   0.0381      3.4645    143.1826 -89.94      2060.25     1.495           25     1.267      3.676     72.31514  19.7652          8
 6.83   0.1002      3.8580    183.6363 -19.12     799.7261     0.927           25     0.685      3.308     73.79377  20.7926          9
 3.50   0.1345      9.2221   1182.3053  14.57     676.5548     0.946           25     0.830      2.089     83.76508  20.9742         10
 7.11   0.1423      1.5458    302.4866  39.07     490.3778     0.504           25     0.494      2.685     64.26669  21.3237         11
 3.50   0.0004     58.9477   1076.9407  75.51     241544.7     2.045           25     1.922      2.807     83.75559  14.5925         12
 3.88   0.0207     23.8041    365.4746  73.25     4399.268     1.319           25     1.260      2.721     83.83143  18.9415         13
 5.46   0.2941     17.0724   1213.4948  89.94     309.2206     0.771           25     0.500      1.938     83.73663  21.8243         14
 7.67   0.3591     14.5140   1561.4911 -11.76     253.1579     0.500           25     0.500      2.193     83.69868  22.0415         15
 4.90   0.0608     23.0687    381.3569  68.74     1495.979     1.192           25     1.060      3.156     83.77456  20.1127         16
 3.84   0.0365     32.9996   1108.4679  65.17      2494.37     1.995           25     1.108      3.427     83.82195  19.5576         17
 5.84   0.0995     22.8925    696.8405 -45.60      913.509     0.813           25     0.665      2.619     83.69868  20.6482         18
 4.81   0.0527     32.3472    325.0265 -20.34     1728.531     1.271           25     1.126      3.128     83.81248  19.9558         19
 3.50   0.0937     37.1702   1519.9764 -87.99     971.0594     1.004           25     0.908      2.048     83.78404  20.5819         20
 3.50   0.0620     37.9992   1169.0452  15.42     1467.323     1.136           25     1.112      2.556     83.83143  20.1337         21
 6.78   0.1255     33.7591     14.6046  71.89     725.4017     0.734           25     0.455      2.456       83.803  20.8986         22
 5.40   0.0547     43.4825    438.4967 -73.85     1661.503     1.314           25     1.121      3.898     83.69868  19.9987         23
 3.50   0.0004     79.0643    535.8630 -57.44     231905.2     1.925           25     1.904      2.760     83.75559  14.6367         24
 4.38   0.0620     41.5828    913.7358 -33.51     1468.082     1.061           25     0.919      2.291       83.803  20.1331         25
 5.75   0.3445     38.6411   1224.6516 -43.67     264.1286     0.867           25     0.523      2.367     83.78404  21.9955         26
 5.56   0.0860     49.4918   1433.8137 -65.21     1057.886     0.954           25     0.923      2.734     83.77456  20.4889         27
 5.18   0.0823     49.4587    263.5749 -66.18     1105.357     1.195           25     0.955      3.415     83.81248  20.4412         28
 7.80   0.2571     42.3415    226.6744  45.68     353.7302     0.577           25     0.333      2.509     83.74611  21.6783         29
 7.05   1.6085     41.6549    999.6901 -46.62     56.53709     0.572           25     0.336      1.832     83.73663  23.6692         30
 8.16   0.1534     46.6941    664.6706 -43.78     592.7408     0.563           25     0.340      2.560     83.73663  21.1178         31
 6.12   0.0913     64.8561   1146.4165  14.61     997.1474     1.051           25     0.890      3.401       83.803  20.5531         32
 3.50   0.0108     74.1151    126.4486 -21.43     8407.062     1.427           25     1.348      2.539     83.75559  18.2384         33
 6.35  99.0000     65.5015   1514.5056 -45.72    -67.40585     0.501           25     0.499      1.886     83.68919  99.0000         34
 8.49   0.1858     66.5318   1414.4746 -44.06      489.341     0.505           25     0.494      2.745     83.70817  21.3260         35
 6.53   0.2980     70.9779   1320.5319 -89.11      305.464     0.789           25     0.499      2.269     83.81248  21.8376         36
 4.15   0.0422     81.3945    419.8273  85.88     2156.921     1.391           25     1.173      3.165     83.78404  19.7154         37
 3.50   0.0003    120.9218    787.4944 -42.80     344531.6     1.968           25     1.946      2.777     83.71765  14.2069         38
 4.45   0.0196     89.6612    375.3125  -8.91     4639.518     2.201           25     1.789      4.814     83.73663  18.8838         39
 6.18   0.1781     78.6917   1031.9766  -2.38     510.7284     0.736           25     0.670      2.750     83.75559  21.2795         40
 3.56   0.0071     95.6111     54.3885  -6.13     12721.48     1.499           25     1.459      2.705     83.74611  17.7887         41
 7.29   0.0817     82.9674    930.9600  44.16     1114.532     0.895           25     0.533      3.557     83.81248  20.4323         42
 5.73   0.0706     87.5743    757.3250  46.61     1288.791     1.080           25     0.936      3.415     83.77456  20.2745         43
 6.11   0.2161     87.1081   1358.1217 -47.31     420.7109     0.830           25     0.673      2.885     83.72714  21.4900         44
 6.78   0.0935     90.7097   1043.9907  53.54     972.8648     1.023           25     0.635      3.670     83.75559  20.5799         45
 4.26   0.0700     90.5881    494.1471 -16.01     1301.236     1.006           25     0.941      2.504     83.82195  20.2641         46
 9.28   0.0948     86.4881    862.0151 -32.06     959.6556     0.798           25     0.313      3.243     83.78404  20.5947         47
 7.82   0.1578     87.6720    810.6771 -45.24     576.2984     0.570           25     0.337      2.598     83.73663  21.1484         48
 4.33   0.0308     97.0989    451.1919 -14.65     2955.568     1.886           25     1.112      3.795     83.74611  19.3734         49
 7.09   0.2127     94.3153    387.6701  44.29     427.3534     0.568           25     0.338      1.880     83.71765  21.4730         50
 8.24   0.1165    101.5233    517.4830  44.00     780.9615     0.503           25     0.496      2.931     83.74611  20.8184         51
 4.85   0.1593    107.1691    861.1779 -44.69     571.1631     0.793           25     0.684      2.277     83.78404  21.1581         52
 6.49   0.0913    114.3650    414.1011  78.71     995.3693     0.993           25     0.745      3.792     83.69868  20.5550         53
 7.57   0.5813    109.7253   1513.3552  40.66       156.46     0.559           25     0.340      1.982     83.74611  22.5640         54
 3.86   0.1183    116.2039    989.3252  17.90     769.5811     0.959           25     0.862      2.524     83.83143  20.8344         55
 3.92   0.1490    116.6458    152.3968 -48.96     610.9523     0.987           25     0.861      2.187     83.83143  21.0850         56
 4.90   0.0679    116.3229     65.0629   2.91     1339.586     1.238           25     0.962      3.596     83.73663  20.2326         57
 5.23   0.0724    125.3040    492.6458   3.72     1256.233     1.313           25     0.899      3.517     83.69868  20.3023         58
 3.50   0.0005    161.4527   1466.8275 -62.60     195301.8     1.887           25     1.855      2.745     83.81248  14.8232         59
 4.88   0.0740    130.2532    416.4069  19.77     1229.851     0.953           25     0.914      2.378     83.85037  20.3254         60
 5.93   0.1553    128.2914    884.0579   6.49     585.6363     0.731           25     0.675      2.483     83.72714  21.1309         61
 5.03   0.4008    127.2593   1476.9744   1.55      227.074     0.661           25     0.438      1.714     83.81248  22.1596         62
 7.12   0.0658    142.3000    885.0659  72.53     1382.482     1.010           25     0.747      4.711     83.75559  20.1984         63
 3.50   0.0021    169.2886    875.6515 -60.73     43930.66     1.717           25     1.674      2.738     83.73663  16.4431         64
 3.50   0.1026    150.5815   1278.7736  82.35      886.576     0.961           25     0.925      2.233     83.79352  20.6807         65
 4.49   0.1594    154.5294     80.6534 -67.71     570.7157     0.937           25     0.808      2.222     83.74611  21.1589         66
 4.01   0.0227    164.1869   1444.2914  47.23     4004.024     1.315           25     1.220      2.705     83.77456  19.0438         67
 5.87   0.2253    155.0629   1578.6616 -89.90     403.8002     0.730           25     0.649      2.651     83.76508  21.5346         68
 3.50   0.0345    165.7468    102.6053 -27.35     2639.502     1.257           25     1.163      2.336     83.85037  19.4962         69
 5.28   0.0867    165.0033    574.9867  75.43     1049.122     1.228           25     0.718      3.083     83.75559  20.4979         70
 4.67   0.0575    168.4867   1367.4685  20.67     1582.336     1.009           25     0.988      2.685     83.70817  20.0518         71
 5.84   0.0778    167.9813    649.5107   1.35     1170.045     1.038           25     0.782      3.072     83.77456  20.3795         72
 4.73   0.0452    179.2377    573.5081  32.97     2011.283     1.568           25     1.257      3.920     83.72714  19.7913         73
 5.49   0.0374    185.8672   1353.5756 -50.21      2432.77     1.474           25     1.273      4.624     83.79352  19.5847         74
 3.93   0.0188    191.7892   1349.0759 -17.92     4854.535     1.315           25     1.260      2.577     83.83143  18.8346         75
 3.73   0.0048    209.8528    826.1118  -7.48     18956.25     4.622           25     2.153      7.811     83.71765  17.3556         76
 4.16   0.0055    229.0615    560.6190 -23.24     16563.47     3.757           25     3.430      8.380     83.79352  17.5021         77
 3.50   0.0100    205.7428    547.4331 -50.08     9131.237     1.413           25     1.388      2.560       83.803  18.1487         78
 6.65   0.1008    195.0215    447.7135 -85.09     902.5546     0.732           25     0.676      3.030     83.77456  20.6613         79
 3.50   0.0101    211.4102   1304.6077 -40.53     9022.498     1.411           25     1.380      2.552     83.74611  18.1617         80
 4.33   0.0337    209.9548    683.0822 -80.09     2702.606     1.518           25     1.217      3.358     83.74611  19.4705         81
 6.95   0.1561    204.8301    182.1670 -44.93     583.0591     0.758           25     0.571      2.703     83.81248  21.1357         82
 3.78   0.1529    208.1468   1224.1273 -14.49     594.8333     0.861           25     0.844      2.252     83.74611  21.1140         83
 3.50   0.0002    258.9254    995.8104 -43.31     597446.6     2.092           25     2.025      2.806     83.83143  13.6093         84
 7.67   0.0944    204.5729    935.2369 -19.75     964.1414     0.733           25     0.455      3.469     83.78404  20.5896         85
 3.50   0.0088    223.2786   1224.6028  20.19     10362.23     1.411           25     1.403      2.486       83.803  18.0114         86
 6.28   0.0526    216.9193    739.7366 -46.49     1728.843     1.323           25     1.013      4.804     83.72714  19.9556         87
 3.50   0.0256    221.6176    773.3508 -32.33     3550.669     1.262           25     1.233      2.375     83.79352  19.1742         88
 7.43   0.0795    216.1229    881.6307 -66.69     1144.378     1.120           25     0.572      4.490     83.77456  20.4036         89
 3.50   0.0002    264.9534     65.7731 -32.20       441316     2.028           25     1.996      2.779     83.82195  13.9381         90
 4.32   0.0133    243.0270    111.0771 -85.87     6864.168     2.181           25     1.625      4.506     83.77456  18.4585         91
 6.77   0.0501    229.2600    546.3682 -62.66     1817.412     1.147           25     0.927      5.291     83.79352  19.9014         92
 4.17   0.0051    254.5277    611.2526 -44.96     17903.99     2.599           25     2.118      5.375     83.74611  17.4176         93
 4.56   0.0309    238.4033    837.2197  -0.07     2939.763     1.538           25     1.343      3.949     83.77456  19.3792         94
 7.00   2.7410    232.2851   1551.6707  42.41     33.16948     0.554           25     0.344      1.774     83.71765  24.2482         95
 6.05   0.1394    238.8988   1477.2656 -62.39     652.4643     1.007           25     0.650      2.934     83.76508  21.0136         96
 5.07   0.0353    249.5192    105.7907 -39.60     2575.665     1.353           25     1.158      3.564     83.77456  19.5228         97
 6.74   0.1055    247.9741   1412.9532  34.10     862.5107     0.809           25     0.777      3.399     83.82195  20.7106         98
 6.52   0.1679    250.1559   1549.1664 -46.24     542.2513     0.825           25     0.674      2.734     83.82195  21.2145         99
 8.32   0.1648    248.6070    149.8001  18.07       552.02     0.742           25     0.453      2.915     83.74611  21.1951        100
 3.50   0.0009    286.7198   1484.9985 -34.86     104266.8     1.803           25     1.773      2.711       83.803  15.5046        101
 3.50   0.0039    281.0606   1520.9103  78.86     23031.84     1.578           25     1.503      2.583     83.74611  17.1442        102
 7.88   0.0789    264.4987    722.9905 -89.56     1152.379     0.852           25     0.694      4.352     83.74611  20.3960        103
 6.08   0.0921    264.5280    122.1684 -89.38      988.364     0.938           25     0.736      3.100     83.78404  20.5627        104
 4.61   0.0393    269.9497   1272.2324   9.29     2315.864     1.380           25     1.179      3.256       83.803  19.6382        105
 7.75   1.1248    270.3510   1248.7195  48.76      80.8608     0.560           25     0.340      2.248     83.74611  23.2807        106
 3.50   0.0012    302.1461    199.9575  -1.01     76318.15     1.754           25     1.748      2.707     83.78404  15.8434        107
 8.12   0.1480    278.4984    555.4962 -45.05      614.421     0.503           25     0.497      3.020     83.71765  21.0788        108
 4.55   0.0210    292.5302   1474.2421 -21.60     4338.959     1.506           25     1.241      3.470     83.78404  18.9565        109
 5.27   0.0748    291.4895    246.7583 -31.60     1215.319     1.130           25     0.933      3.096     83.75559  20.3383        110
 3.50   0.0219    301.2911    561.8903  -3.92     4151.281     1.383           25     1.345      2.744     83.69868  19.0045        111
 5.62   0.0330    307.7112     83.4766  74.73     2750.655     1.692           25     1.285      5.292     83.70817  19.4514        112
 3.50   0.0018    321.1615    695.6137 -47.99     50674.25     1.682           25     1.667      2.676     83.81248  16.2880        113
 3.98   0.0213    320.8418    639.7523 -62.45     4264.347     2.244           25     1.508      4.464     83.81248  18.9754        114
 4.25   0.0093    326.5584    593.7395  -1.29     9793.399     1.915           25     1.868      4.463     83.78404  18.0727        115
 7.56   0.0728    310.0077    315.3219  87.28      1249.57     0.749           25     0.679      4.050       83.803  20.3081        116
 5.25   0.0944    315.9547    225.1773  -9.26     963.7261     1.107           25     0.728      2.893       83.803  20.5901        117
 3.71   0.0419    331.2021     91.6054 -20.61      2169.71     1.213           25     1.064      2.337     83.76508  19.7090        118
 4.22   0.0548    328.4932   1544.6573   0.89      1660.73     1.102           25     0.968      2.442     83.72714  19.9993        119
 3.62   0.0188    349.0294     52.9462 -35.30     4837.604     1.319           25     1.295      2.562     83.81248  18.8384        120
 3.50   0.0017    367.2354    759.4962 -26.09     52348.22     1.732           25     1.685      2.700     83.70817  16.2527        121
 5.45   0.0890    347.3217     40.6653 -50.68     1021.711     0.987           25     0.848      3.096     83.71765  20.5267        122
 3.50   0.0097    360.3835   1498.9019 -13.41     9350.119     1.548           25     1.385      2.663     83.75559  18.1230        123
 3.50   0.0004    394.2159    229.6349 -70.43     256526.1     1.952           25     1.907      2.790     83.81248  14.5272        124
 3.50   0.0399    359.7347   1032.5051  38.29     2282.018     1.217           25     1.170      2.360     83.75559  19.6542        125
 4.74   0.0285    374.2932    752.1290  51.98     3187.704     2.168           25     1.272      4.723     83.73663  19.2913        126
 4.80   0.0508    369.4625     69.8472 -56.93     1789.703     1.299           25     1.090      3.551     83.75559  19.9180        127
 3.74   0.0413    372.4083   1082.3356 -32.85     2204.962     1.433           25     1.350      3.313      83.8409  19.6915        128
 6.16   0.0699    368.3817    208.3981 -49.89     1302.146     1.080           25     0.933      4.432     83.76508  20.2633        129
 3.99   0.1223    374.3221     85.4926 -20.10     743.6851     0.963           25     0.937      2.264     83.72714  20.8715        130
 3.50   0.0025    396.2272   1459.7446 -45.85      36509.3     1.624           25     1.598      2.629     83.81248  16.6440        131
 4.45   0.0551    379.1256    123.9208  61.23     1652.046     1.113           25     1.110      2.466     83.74611  20.0049        132
 3.50   0.0022    397.1835    352.8708 -58.84     41612.86     1.677           25     1.629      2.657     83.83143  16.5019        133
 5.17   0.0628    381.4269     65.5967  24.25      1447.88     1.219           25     0.932      3.056     83.77456  20.1482        134
 3.50   0.0106    392.8812   1087.1532  12.39     8604.227     1.405           25     1.374      2.515     83.74611  18.2132        135
 5.14   0.0245    395.6750    625.1777 -87.51      3713.07     1.901           25     1.613      5.645       83.803  19.1257        136
 7.24   0.0691    381.7726      9.7077   6.31     1316.676     0.910           25     0.766      4.431     83.75559  20.2513        137
 4.10   0.1075    388.2085   1193.8507 -68.22     846.9204     0.938           25     0.836      2.286     83.83143  20.7304        138
