#   1 KRON_RADIUS            Kron apertures in units of A or B                         
#   2 MAGERR_APER            RMS error vector for fixed aperture mag.                   [mag]
#   3 Y_IMAGE                Object position along y                                    [pixel]
#   4 X_IMAGE                Object position along x                                    [pixel]
#   5 FLUX_APER              Flux vector within fixed circular aperture(s)              [count]
#   6 THRESHOLD              Detection threshold above background                       [count]
#   7 THETA_IMAGE            Position angle (CCW/x)                                     [deg]
#   8 A_IMAGE                Profile RMS along major axis                               [pixel]
#   9 B_IMAGE                Profile RMS along minor axis                               [pixel]
#  10 FLUX_RADIUS            Fraction-of-light radii                                    [pixel]
#  11 FLUXERR_APER           RMS error vector for aperture flux(es)                     [count]
#  12 MAG_APER               Fixed aperture magnitude vector                            [mag]
#  13 NUMBER                 Running object number                                     
 4.17   0.0009     53.2565     63.6428     139253.6      43.5463   1.98     5.123     4.572     10.703     109.4175  15.1905          1
 3.87   0.0051     16.4784    985.0769     23330.38      43.5463 -88.62     4.214     1.929      7.089     109.4051  17.1302          2
 3.94   0.0064     18.0460     91.3107     18703.05      43.5463 -21.89     1.737     1.698      3.528     109.3803  17.3702          3
 3.50   0.0026     14.6388   1445.7582     46494.91      43.5463 -57.14     1.867     1.780      3.211      109.467  16.3815          4
 8.01   0.1052     10.3046   1183.6648     1129.651      43.5463  43.46     0.565     0.339      2.514     109.3927  20.4176          5
 7.29   0.0505      4.4737    145.2111     2132.699      43.5463 -88.54     1.003     0.739      3.898     99.19192  19.7277          6
 6.79   0.0473     17.2495    384.5198     2511.556      43.5463  14.89     0.994     0.963      4.685     109.3927  19.5501          7
 5.10   0.0277     24.7656    367.2277     4288.311      43.5463 -21.08     1.302     1.279      3.598     109.4422  18.9693          8
 3.50   0.0006     59.7884   1078.4711     204433.5      43.5463  81.96     2.254     2.134      3.362     109.5165  14.7736          9
 8.47   0.0630     23.7820    383.3971     1887.065      43.5463 -72.10     0.757     0.452      3.766     109.4051  19.8605         10
 6.25   0.0459     34.0507   1110.2819     2589.376      43.5463  62.34     1.556     0.820      4.300     109.3803  19.5170         11
 7.75   0.0622     33.6917    326.9680     1910.896      43.5463   4.05     0.746     0.680      3.868     109.3927  19.8469         12
 5.80   0.0998     37.8551   1521.1614     1190.973      43.5463  46.17     0.829     0.669      2.613     109.4546  20.3602         13
 7.09   0.0742     38.8824   1170.3628      1602.21      43.5463  19.36     0.930     0.690      3.603     109.4422  20.0382         14
 5.89   0.0783     42.2124    915.4865     1518.046      43.5463   0.03     0.960     0.732      2.890     109.4546  20.0968         15
 3.50   0.0006     80.1619    537.6298     197374.4      43.5463 -62.67     2.147     2.092      3.312      109.467  14.8118         16
 9.34   0.0702     44.4960    440.5079     1690.676      43.5463 -45.27     0.502     0.498      3.014     109.3307  19.9798         17
 4.11   0.0150     75.1902    128.0414     7940.164      43.5463 -37.04     1.529     1.468      3.398      109.467  18.3004         18
 6.49   0.0501     82.2800    421.5060     2372.129      43.5463 -72.84     0.994     0.983      3.936     109.3679  19.6122         19
 5.82   0.0250     90.8266    377.0053     4747.072      43.5463 -20.10     1.665     1.529      5.382     109.4546  18.8589         20
 3.50   0.0004    121.8114    789.1776     289804.9      43.5463 -58.05     2.229     2.157      3.334     109.4299  14.3947         21
 4.36   0.0103     96.6437     56.2313     11507.07      43.5463 -31.28     1.614     1.551      3.642     109.4918  17.8976         22
 5.99   0.0384     98.0480    452.9695     3093.978      43.5463 -14.64     1.446     1.005      4.563     109.4918  19.3237         23
 7.37   0.0853     91.5052    495.9703     1392.207      43.5463  -1.48     0.787     0.500      3.058     109.4051  20.1907         24
 3.50   0.0007    162.3181   1468.3154     165836.3      43.5463 -54.27     2.107     2.045      3.259     109.3679  15.0008         25
 6.96   0.0855    131.2889    418.0246         1390      43.5463   6.46     0.732     0.680      3.586     109.4175  20.1925         26
 3.51   0.0030    170.3064    877.3268     39348.88      43.5463 -37.22     1.862     1.820      3.314     109.3803  16.5627         27
 8.35   0.1025    151.4877   1280.4851     1158.526      43.5463 -45.63     0.501     0.498      2.944     109.3679  20.3902         28
 5.42   0.0304    164.9675   1445.6466     3908.795      43.5463  15.16     1.301     1.188      4.037     109.4918  19.0699         29
 4.31   0.0442    166.7818    104.4359     2687.529      43.5463 -17.88     1.262     1.144      3.051     109.4794  19.4766         30
 6.36   0.0787    169.3399   1368.8975     1508.523      43.5463  67.99     0.912     0.688      3.014     109.3555  20.1036         31
 7.84   0.0565    180.1621    574.8980     2102.781      43.5463  43.06     0.862     0.672      3.947     109.3431  19.7430         32
 7.46   0.0496    186.6548   1354.9116     2396.419      43.5463  76.16     1.037     0.755      4.332     109.3803  19.6011         33
 5.19   0.0247    192.5967   1350.5398     4809.754      43.5463 -13.63     1.363     1.306      4.021     109.5165  18.8447         34
 4.70   0.0068    210.7428    827.6968     17441.27      43.5463  -6.18     3.876     2.046      8.406     109.3431  17.4461         35
 4.00   0.0145    206.6966    549.0604     8207.219      43.5463 -49.71     1.513     1.492      3.304     109.3679  18.2645         36
 4.11   0.0144    212.1412   1306.0922     8236.074      43.5463  48.60     1.503     1.492      3.323     109.3679  18.2607         37
 5.41   0.0078    230.1308    562.3044      15241.3      43.5463 -39.65     3.208     3.006      9.598     109.3927  17.5924         38
 5.63   0.0441    210.9195    684.8603     2691.204      43.5463 -65.24     1.213     1.116      3.878     109.3927  19.4751         39
 3.50   0.0002    259.7673    997.4636     495501.2      43.5463 -49.22     2.326     2.227      3.355     109.4422  13.8124         40
 3.86   0.0126    223.9153   1226.0546     9408.274      43.5463  26.73     1.504     1.485      3.205     109.3679  18.1162         41
 4.85   0.0350    222.5792    774.9357     3400.924      43.5463 -38.99     1.212     1.165      3.423     109.4794  19.2210         42
 3.50   0.0003    265.9208     67.5955     371594.2      43.5463 -49.39     2.265     2.196      3.340     109.4546  14.1248         43
 5.43   0.0174    243.9537    112.8670     6846.408      43.5463 -87.80     1.944     1.539      5.550     109.4299  18.4613         44
 4.72   0.0072    255.4751    612.9941      16576.3      43.5463 -39.55     2.421     2.015      5.938     109.5041  17.5013         45
 6.41   0.0411    239.3534    838.8110     2892.685      43.5463  -5.01     1.207     1.103      4.584      109.467  19.3967         46
 7.10   0.0403    250.5009    107.5042     2946.369      43.5463 -43.09     1.109     0.854      5.477     109.3555  19.3768         47
 3.50   0.0013    287.5338   1486.4602      88754.8      43.5463 -51.40     2.024     1.972      3.318     109.3927  15.6795         48
 3.59   0.0059    281.9197   1522.3905     20128.58      43.5463 -19.94     1.694     1.647      3.231     109.4422  17.2905         49
 6.53   0.0512    270.8847   1273.6149     2319.361      43.5463  14.10     1.033     0.744      3.897     109.4422  19.6366         50
 3.50   0.0018    303.1575    201.7498     66855.84      43.5463 -49.83     1.952     1.913      3.267      109.467  15.9872         51
 6.10   0.0315    293.2261   1475.8163     3772.649      43.5463 -40.46     1.240     1.134      4.849     109.4546  19.1084         52
 4.59   0.0321    302.2395    563.7120     3703.012      43.5463  21.58     1.338     1.245      3.465     109.4175  19.1286         53
 8.77   0.0942    292.5020    248.4889     1259.994      43.5463 -46.51     0.501     0.499      3.006     109.3307  20.2991         54
 3.50   0.0027    322.0915    697.3416     44720.92      43.5463 -10.33     1.848     1.812      3.265     109.3679  16.4237         55
 7.71   0.0467    308.7028     85.3052     2542.348      43.5463  46.83     0.969     0.765      5.156     109.3307  19.5369         56
 6.02   0.0291    321.8692    641.5228     4076.296      43.5463 -65.00     1.773     1.200      5.282     109.3679  19.0243         57
 5.05   0.0133    327.5058    595.4429     8899.028      43.5463  10.57     1.724     1.717      5.020     109.3431  18.1766         58
 5.89   0.0762    329.2318   1546.0073     1560.795      43.5463 -87.79     0.902     0.759      2.867      109.467  20.0666         59
 5.72   0.0555    332.2732     93.4231     2143.079      43.5463  16.80     0.992     0.954      3.241      109.467  19.7224         60
 3.50   0.0026    368.3845    760.8975     46331.74      43.5463 -45.12     2.558     1.841      3.536     109.4175  16.3853         61
 4.69   0.0258    350.0923     54.7249     4598.159      43.5463 -36.82     1.357     1.328      3.504     109.3679  18.8935         62
 3.93   0.0145    361.1682   1500.3911     8194.737      43.5463 -15.61     1.577     1.452      3.381     109.4546  18.2662         63
 3.50   0.0005    395.2360    231.4487     219195.2      43.5463 -60.98     2.186     2.116      3.304      109.467  14.6979         64
 5.51   0.0464    360.5753   1033.9026     2559.579      43.5463 -13.57     1.158     0.962      3.293     109.3927  19.5296         65
 7.31   0.0678    370.4859     71.9584     1752.681      43.5463 -87.89     0.815     0.701      3.971     109.4175  19.9407         66
 6.35   0.0544    373.5033   1083.8605     2182.385      43.5463 -17.55     1.103     0.982      4.115     109.3679  19.7027         67
 6.43   0.0433    380.6082      1.4856     2095.001      43.5463 -89.71     1.605     0.500      4.371     83.59194  19.7470         68
 3.50   0.0037    397.0699   1461.1993     31909.41      43.5463 -74.23     1.779     1.761      3.230     109.4918  16.7902         69
 3.50   0.0032    398.1953    354.6356     37070.84      43.5463 -38.67     1.844     1.807      3.307     109.4546  16.6274         70
 8.23   0.1223    375.6642     87.3029     971.4619      43.5463  46.67     0.565     0.339      2.332     109.4051  20.5814         71
 6.56   0.0699    380.1645    125.8450      1701.98      43.5463  44.75     0.820     0.679      3.145     109.4918  19.9726         72
 4.11   0.0154    393.8165   1088.7810     7719.932      43.5463 -37.44     1.519     1.447      3.352     109.4422  18.3310         73
 8.74   0.0873    382.4934     67.5072     1359.642      43.5463 -45.03     0.504     0.496      3.026     109.3307  20.2164         74
 8.20   0.1752    388.6971   1195.3385     677.7997      43.5463  43.22     0.566     0.339      2.544     109.3679  20.9722         75
 6.05   0.0265    412.0412      1.7690      3491.89      43.5463 -89.92     2.513     0.700      6.059      85.3567  19.1923         76
 7.56   0.0323    397.0254    626.6956     3679.621      43.5463 -65.30     1.341     1.083      6.199     109.4051  19.1355         77
 7.93   0.0552    403.4896    526.4983     2152.499      43.5463  89.32     1.090     0.500      4.112     109.3307  19.7176         78
 7.01   0.0883    407.0443    282.2940     1344.795      43.5463  89.42     0.737     0.674      3.432     109.3431  20.2284         79
 3.50   0.0016    437.9754    252.0879     72383.75      43.5463 -73.79     1.987     1.960      3.318     109.4299  15.9009         80
 3.50   0.0002    461.0806    807.6478     596370.1      43.5463 -61.03     2.345     2.265      3.372     109.4051  13.6112         81
 5.82   0.0262    420.8114    159.0276     4537.439      43.5463  31.01     1.646     1.399      5.347     109.4546  18.9080         82
 7.46   0.1381    419.5259   1580.4933      860.061      43.5463  42.63     0.503     0.496      2.375     109.3679  20.7137         83
 4.09   0.0201    432.9641   1422.0618     5914.802      43.5463  10.78     1.426     1.390      3.342     109.4422  18.6201         84
 6.56   0.0469    426.6788   1179.2426     2534.855      43.5463   4.87     1.217     0.942      4.592     109.4175  19.5401         85
 6.30   0.0011    426.7638    432.9953       112701      43.5463  -1.33     2.306     0.724      4.556     109.4546  15.4202         86
 7.97   0.1254    426.3199    299.6852     946.9421      43.5463  45.26     0.563     0.340      2.421     109.3679  20.6092         87
 5.15   0.0490    434.2638    151.1026     2422.628      43.5463 -22.15     1.134     1.029      3.146     109.4051  19.5893         88
 3.83   0.0051    450.3487     21.3388     23461.91      43.5463 -48.98     1.765     1.732      3.422     109.4051  17.1241         89
 4.97   0.0058    467.8039    850.5261     20554.18      43.5463  22.58     7.410     2.036     14.450     109.5041  17.2677         90
 9.78   0.0422    430.5058    718.5177     2812.773      43.5463  46.24     0.503     0.497      3.018     109.3679  19.4272         91
 4.44   0.0463    439.9993    305.8438     2566.628      43.5463  43.70     1.155     1.138      2.844     109.4918  19.5266         92
 3.72   0.0045    457.8458     34.5835     26232.08      43.5463 -52.57     1.776     1.744      3.375      109.467  17.0029         93
 5.37   0.0288    445.1875    122.3629     4134.262      43.5463 -18.75     1.407     1.262      4.183      109.467  19.0090         94
 7.36   0.1142    443.7620    655.0262     1041.164      43.5463   1.24     0.687     0.426      2.665      109.467  20.5062         95
 4.21   0.0138    463.6682    468.6435     8608.379      43.5463  53.82     1.598     1.540      3.517     109.4299  18.2127         96
 6.17   0.0908    452.9252   1533.0214     1308.975      43.5463 -29.49     0.791     0.773      2.995     109.4794  20.2577         97
 5.02   0.0426    461.0328   1096.1024     2785.275      43.5463  25.35     1.186     1.122      3.307     109.3431  19.4378         98
 3.93   0.0112    472.1450    734.9465     10570.73      43.5463  81.94     1.560     1.476      3.232     109.4299  17.9897         99
 4.57   0.0159    471.3524    254.2341     7454.197      43.5463 -43.46     1.496     1.431      3.601      109.467  18.3690        100
 7.57   0.0576    461.8461    724.7260     2064.268      43.5463 -20.19     0.947     0.682      4.246     109.3927  19.7631        101
 3.65   0.0089    477.9322    923.0837     13393.45      43.5463 -33.10     1.669     1.599      3.277     109.3803  17.7328        102
 4.25   0.0236    477.2760   1276.4293     5036.388      43.5463 -44.94     1.341     0.920      3.173     109.4299  18.7947        103
 5.70   0.0341    488.8282    839.6331     3486.768      43.5463  88.79     2.086     0.973      5.090     109.4546  19.1939        104
 4.03   0.0207    484.0666   1070.6798     5741.453      43.5463 -55.90     1.426     1.366      3.238     109.3679  18.6524        105
 6.55   0.1134    476.0097   1168.3048     1047.815      43.5463  86.99     0.730     0.675      3.045     109.4051  20.4993        106
 5.24   0.0115    496.2249     82.9241     10355.63      43.5463  67.05     2.294     2.075      6.564     109.4422  18.0121        107
 6.75   0.0726    478.8782    682.8464     1637.433      43.5463 -45.71     0.818     0.680      3.448     109.3927  20.0146        108
 5.08   0.0119    495.6584   1186.8361     10002.39      43.5463 -15.84     2.977     1.887      6.825     109.4546  18.0497        109
 5.01   0.0194    504.2094    762.9064     6135.043      43.5463 -89.47     1.764     1.674      5.106     109.4175  18.5805        110
 4.68   0.0329    501.9949    863.7543     3618.777      43.5463   0.62     1.253     1.182      3.247     109.4918  19.1536        111
 4.47   0.0095    515.3533   1461.0763     12448.82      43.5463  24.01     4.103     1.634      7.760     109.3803  17.8122        112
 5.91   0.0806    498.0129    366.2479      1475.32      43.5463  -0.58     0.922     0.749      2.986     109.4794  20.1278        113
 6.00   0.0328    509.9556    165.0489     3629.646      43.5463 -10.41     1.837     1.020      5.188      109.467  19.1503        114
 4.78   0.0323    513.9047   1179.2246     3678.439      43.5463  -5.57     1.244     1.182      3.388     109.4051  19.1358        115
 5.35   0.0449    519.1333    641.9204     2646.335      43.5463  20.46     1.195     1.114      3.681     109.3679  19.4934        116
 6.42   0.1109    518.1923   1519.1840     1071.205      43.5463  46.10     0.759     0.567      2.555     109.3803  20.4753        117
 4.07   0.0146    540.2014    999.9447     8135.053      43.5463  -7.60     1.478     1.467      3.315     109.5289  18.2741        118
 6.33   0.0601    536.3397    404.5272      1977.09      43.5463  39.13     1.182     0.788      3.560     109.3927  19.8099        119
 3.79   0.0109    558.9291   1041.7891     10871.37      43.5463   0.03     1.618     1.552      3.358     109.5041  17.9593        120
 4.65   0.0149    571.2954     45.8589      7988.14      43.5463  48.88     2.091     1.515      4.781     109.3679  18.2939        121
 5.98   0.1528    555.8099    778.7978     777.4569      43.5463  45.31     0.757     0.566      2.260     109.4051  20.8233        122
 3.50   0.0027    580.7115    144.9684     44169.16      43.5463 -70.14     1.859     1.826      3.274     109.4175  16.4372        123
 4.50   0.0157    571.3770   1447.8510     7586.757      43.5463  19.22     2.289     1.667      5.424     109.4918  18.3499        124
 5.72   0.0528    565.1072    139.5361     2249.252      43.5463 -68.23     1.046     0.976      3.419     109.4051  19.6699        125
 4.21   0.0053    596.6942    782.6355     22546.79      43.5463 -64.90     3.326     3.088      7.935     109.3679  17.1673        126
 3.50   0.0027    582.2111    319.2451     44068.48      43.5463   2.55     1.852     1.810      3.263     109.4546  16.4397        127
 6.15   0.0439    576.3021   1001.8055     2708.376      43.5463  28.92     1.220     1.022      4.172     109.4051  19.4682        128
 4.56   0.0391    584.5316     76.0103     3037.872      43.5463  -8.04     1.204     1.139      3.252     109.5041  19.3436        129
 4.04   0.0229   1001.5208   1555.4537     5181.464      43.5463  52.13     1.345     1.320      3.049     109.3803  18.7639        130
 4.65   0.0254   1597.6199    654.7779     4019.104      43.5463   2.77     1.652     1.432      4.015      94.0585  19.0397        131
 5.04   0.0444   1594.7402    374.1065     2588.594      43.5463  43.35     1.308     1.019      3.440     105.7774  19.5173        132
 3.98   0.0207   1584.9110   1108.9387     5750.029      43.5463 -13.63     1.428     1.352      3.178     109.3927  18.6508        133
 6.67   0.1238   1585.9336   1069.5111     959.5508      43.5463 -89.02     0.781     0.500      2.549     109.3927  20.5948        134
 3.53   0.0077   1541.8699    135.1601     15404.59      43.5463  70.30     1.663     1.606      3.214     109.4422  17.5809        135
 4.63   0.0713   1514.6406    483.6134      1666.45      43.5463 -43.54     1.049     0.948      2.733     109.4546  19.9955        136
 4.31   0.0672    912.4411   1001.0433     1768.895      43.5463   2.65     1.099     0.958      2.619     109.4794  19.9307        137
 3.50   0.0041    900.4877    302.8330     29057.81      43.5463  49.85     1.765     1.762      3.293     109.4299  16.8918        138
