#   1 KRON_RADIUS            Kron apertures in units of A or B                         
#   2 MAGERR_APER            RMS error vector for fixed aperture mag.                   [mag]
#   3 Y_IMAGE                Object position along y                                    [pixel]
#   4 X_IMAGE                Object position along x                                    [pixel]
#   5 THETA_IMAGE            Position angle (CCW/x)                                     [deg]
#   6 FLUX_APER              Flux vector within fixed circular aperture(s)              [count]
#   7 A_IMAGE                Profile RMS along major axis                               [pixel]
#   8 THRESHOLD              Detection threshold above background                       [count]
#   9 B_IMAGE                Profile RMS along minor axis                               [pixel]
#  10 FLUX_RADIUS            Fraction-of-light radii                                    [pixel]
#  11 FLUXERR_APER           RMS error vector for aperture flux(es)                     [count]
#  12 MAG_APER               Fixed aperture magnitude vector                            [mag]
#  13 NUMBER                 Running object number                                     
 3.77   0.0000     52.3656     61.8381  -4.11     27972.31     5.767           25     5.156      8.088  0.002335948  16.9332          1
 3.50   0.0000     15.7502    983.4642 -87.95     4454.577     4.430           25     1.919      5.195  0.002335155  18.9280          2
 3.50   0.0000     17.0166     89.5020 -27.30     4216.073     1.584           25     1.535      0.989   0.00233489  18.9877          3
 3.50   0.0000     13.8130   1444.2402 -50.19     11056.44     1.667           25     1.653      1.292  0.002335948  17.9410          4
 4.41   0.0000     16.2316    382.9453 -68.30     358.6985     1.179           25     1.108      1.199  0.002336212  21.6632          5
 6.18   0.0000     12.9454    839.5240 -53.69     145.1446     1.159           25     0.755      3.348  0.002334626  22.6455          6
 6.27   0.0000      5.8499   1467.8611 -42.10     63.66352     0.830           25     0.681      1.992  0.002229404  23.5403          7
 4.92   0.0000      3.4645    143.1826 -89.94     141.9213     1.495           25     1.267      2.081   0.00201596  22.6699          8
 6.83   0.0001      3.8580    183.6363 -19.12     44.27513     0.927           25     0.685      2.585   0.00205718  23.9346          9
 3.50   0.0000      9.2221   1182.3053  14.57     164.5339     0.946           25     0.830      1.292  0.002335155  22.5094         10
 7.11   0.0001      1.5458    302.4866  39.07     13.21224     0.504           25     0.494      3.021   0.00179159  25.2476         11
 3.50   0.0000     58.9477   1076.9407  75.51      39826.7     2.045           25     1.922      1.494   0.00233489  16.5496         12
 3.88   0.0000     23.8041    365.4746  73.25     803.2453     1.319           25     1.260      0.931  0.002337004  20.7879         13
 5.46   0.0000     17.0724   1213.4948  89.94     74.82233     0.771           25     0.500      1.011  0.002334362  23.3649         14
 7.67   0.0000     14.5140   1561.4911 -11.76     95.93676     0.500           25     0.500      1.142  0.002333304  23.0950         15
 4.90   0.0000     23.0687    381.3569  68.74     238.0076     1.192           25     1.060      1.323  0.002335419  22.1085         16
 3.84   0.0000     32.9996   1108.4679  65.17     370.8696     1.995           25     1.108      2.760   0.00233674  21.6269         17
 5.84   0.0000     22.8925    696.8405 -45.60     154.9511     0.813           25     0.665      1.341  0.002333304  22.5745         18
 4.81   0.0000     32.3472    325.0265 -20.34     236.2425     1.271           25     1.126      2.047  0.002336476  22.1166         19
 3.50   0.0000     37.1702   1519.9764 -87.99     226.0982     1.004           25     0.908      1.319  0.002335683  22.1643         20
 3.50   0.0000     37.9992   1169.0452  15.42     198.0179     1.136           25     1.112      1.268  0.002337004  22.3082         21
 6.78   0.0000     33.7591     14.6046  71.89     104.7939     0.734           25     0.455      1.336  0.002336212  22.9992         22
 5.40   0.0000     43.4825    438.4967 -73.85     212.4688     1.314           25     1.121      2.525  0.002333304  22.2318         23
 3.50   0.0000     79.0643    535.8630 -57.44     35687.62     1.925           25     1.904      1.480   0.00233489  16.6687         24
 4.38   0.0000     41.5828    913.7358 -33.51     236.4998     1.061           25     0.919      1.128  0.002336212  22.1154         25
 5.75   0.0000     38.6411   1224.6516 -43.67     95.64649     0.867           25     0.523      1.163  0.002335683  23.0983         26
 5.56   0.0000     49.4918   1433.8137 -65.21     278.9618     0.954           25     0.923      1.187  0.002335419  21.9361         27
 5.18   0.0000     49.4587    263.5749 -66.18     151.0498     1.195           25     0.955      1.972  0.002336476  22.6022         28
 7.80   0.0001     42.3415    226.6744  45.68     46.20558     0.577           25     0.333      1.472  0.002334626  23.8883         29
 7.05   0.0001     41.6549    999.6901 -46.62     44.30999     0.572           25     0.336      1.286  0.002334362  23.9337         30
 8.16   0.0000     46.6941    664.6706 -43.78     114.6431     0.563           25     0.340      2.740  0.002334362  22.9016         31
 6.12   0.0000     64.8561   1146.4165  14.61     126.3115     1.051           25     0.890      1.655  0.002336212  22.7964         32
 3.50   0.0000     74.1151    126.4486 -21.43     1749.683     1.427           25     1.348      1.098   0.00233489  19.9426         33
 6.35   0.0001     65.5015   1514.5056 -45.72     35.55384     0.501           25     0.499      1.145  0.002333039  24.1728         34
 8.49   0.0001     66.5318   1414.4746 -44.06     35.44299     0.505           25     0.494      1.882  0.002333568  24.1762         35
 6.53   0.0000     70.9779   1320.5319 -89.11     71.42254     0.789           25     0.499      0.999  0.002336476  23.4154         36
 4.15   0.0000     81.3945    419.8273  85.88      316.446     1.391           25     1.173      1.525  0.002335683  21.7992         37
 3.50   0.0000    120.9218    787.4944 -42.80     53124.23     1.968           25     1.946      1.532  0.002333833  16.2368         38
 4.45   0.0000     89.6612    375.3125  -8.91     665.7531     2.201           25     1.789      3.582  0.002334362  20.9917         39
 6.18   0.0000     78.6917   1031.9766  -2.38     56.10441     0.736           25     0.670      1.127   0.00233489  23.6775         40
 3.56   0.0000     95.6111     54.3885  -6.13     2567.758     1.499           25     1.459      1.000  0.002334626  19.5261         41
 7.29   0.0000     82.9674    930.9600  44.16     129.0438     0.895           25     0.533      2.303  0.002336476  22.7732         42
 5.73   0.0000     87.5743    757.3250  46.61     180.4923     1.080           25     0.936      1.725  0.002335419  22.4089         43
 6.11   0.0000     87.1081   1358.1217 -47.31     89.70711     0.830           25     0.673      1.356  0.002334097  23.1679         44
 6.78   0.0000     90.7097   1043.9907  53.54     61.29585     1.023           25     0.635      1.497   0.00233489  23.5814         45
 4.26   0.0000     90.5881    494.1471 -16.01     234.1668     1.006           25     0.941      0.946   0.00233674  22.1262         46
 9.28   0.0000     86.4881    862.0151 -32.06     109.5729     0.798           25     0.313      2.157  0.002335683  22.9507         47
 7.82   0.0000     87.6720    810.6771 -45.24     61.10152     0.570           25     0.337      1.721  0.002334362  23.5849         48
 4.33   0.0000     97.0989    451.1919 -14.65     469.4645     1.886           25     1.112      2.452  0.002334626  21.3710         49
 7.09   0.0000     94.3153    387.6701  44.29     111.4689     0.568           25     0.338      1.326  0.002333833  22.9321         50
 8.24   0.0000    101.5233    517.4830  44.00     91.05856     0.503           25     0.496      1.972  0.002334626  23.1517         51
 4.85   0.0000    107.1691    861.1779 -44.69     93.23457     0.793           25     0.684      0.796  0.002335683  23.1261         52
 6.49   0.0000    114.3650    414.1011  78.71     134.9016     0.993           25     0.745      1.301  0.002333304  22.7250         53
 7.57   0.0001    109.7253   1513.3552  40.66     40.00791     0.559           25     0.340      1.012  0.002334626  24.0446         54
 3.86   0.0000    116.2039    989.3252  17.90     80.47941     0.959           25     0.862      1.405  0.002337004  23.2858         55
 3.92   0.0000    116.6458    152.3968 -48.96     133.2586     0.987           25     0.861      1.010  0.002337004  22.7383         56
 4.90   0.0000    116.3229     65.0629   2.91     178.9813     1.238           25     0.962      1.339  0.002334362  22.4180         57
 5.23   0.0000    125.3040    492.6458   3.72     142.2729     1.313           25     0.899      2.125  0.002333304  22.6672         58
 3.50   0.0000    161.4527   1466.8275 -62.60     32927.48     1.887           25     1.855      1.479  0.002336476  16.7561         59
 4.88   0.0000    130.2532    416.4069  19.77     152.2515     0.953           25     0.914      1.038  0.002337533  22.5936         60
 5.93   0.0000    128.2914    884.0579   6.49     110.0902     0.731           25     0.675      1.284  0.002334097  22.9456         61
 5.03   0.0000    127.2593   1476.9744   1.55     63.82694     0.661           25     0.438      1.181  0.002336476  23.5375         62
 7.12   0.0000    142.3000    885.0659  72.53     130.3904     1.010           25     0.747      5.245   0.00233489  22.7619         63
 3.50   0.0000    169.2886    875.6515 -60.73     9927.313     1.717           25     1.674      1.128  0.002334362  18.0579         64
 3.50   0.0000    150.5815   1278.7736  82.35     198.0506     0.961           25     0.925      1.192  0.002335948  22.3081         65
 4.49   0.0000    154.5294     80.6534 -67.71     139.5305     0.937           25     0.808      1.096  0.002334626  22.6883         66
 4.01   0.0000    164.1869   1444.2914  47.23     682.5137     1.315           25     1.220      1.248  0.002335419  20.9647         67
 5.87   0.0000    155.0629   1578.6616 -89.90     73.89229     0.730           25     0.649      1.282  0.002335155  23.3785         68
 3.50   0.0000    165.7468    102.6053 -27.35     586.6597     1.257           25     1.163      0.989  0.002337533  21.1290         69
 5.28   0.0000    165.0033    574.9867  75.43     120.7552     1.228           25     0.718      1.617   0.00233489  22.8452         70
 4.67   0.0000    168.4867   1367.4685  20.67     173.4839     1.009           25     0.988      1.274  0.002333568  22.4519         71
 5.84   0.0000    167.9813    649.5107   1.35       128.49     1.038           25     0.782      1.256  0.002335419  22.7778         72
 4.73   0.0000    179.2377    573.5081  32.97     360.0608     1.568           25     1.257      2.072  0.002334097  21.6591         73
 5.49   0.0000    185.8672   1353.5756 -50.21     288.8926     1.474           25     1.273      1.440  0.002335948  21.8982         74
 3.93   0.0000    191.7892   1349.0759 -17.92     910.6614     1.315           25     1.260      1.278  0.002337004  20.6516         75
 3.73   0.0000    209.8528    826.1118  -7.48     3041.458     4.622           25     2.153      6.555  0.002333833  19.3423         76
 4.16   0.0000    229.0615    560.6190 -23.24     2785.458     3.757           25     3.430      7.097  0.002335948  19.4378         77
 3.50   0.0000    205.7428    547.4331 -50.08      1810.05     1.413           25     1.388      0.926  0.002336212  19.9058         78
 6.65   0.0000    195.0215    447.7135 -85.09     121.1395     0.732           25     0.676      1.187  0.002335419  22.8418         79
 3.50   0.0000    211.4102   1304.6077 -40.53     1704.765     1.411           25     1.380      1.051  0.002334626  19.9708         80
 4.33   0.0000    209.9548    683.0822 -80.09     426.9059     1.518           25     1.217      1.519  0.002334626  21.4742         81
 6.95   0.0000    204.8301    182.1670 -44.93      98.0445     0.758           25     0.571      1.556  0.002336476  23.0714         82
 3.78   0.0000    208.1468   1224.1273 -14.49     133.9533     0.861           25     0.844      1.207  0.002334626  22.7326         83
 3.50   0.0000    258.9254    995.8104 -43.31      86268.3     2.092           25     2.025      1.564  0.002337004  15.7104         84
 7.67   0.0000    204.5729    935.2369 -19.75     116.5224     0.733           25     0.455      1.827  0.002335683  22.8840         85
 3.50   0.0000    223.2786   1224.6028  20.19     2077.342     1.411           25     1.403      1.020  0.002336212  19.7562         86
 6.28   0.0000    216.9193    739.7366 -46.49      193.229     1.323           25     1.013      2.771  0.002334097  22.3348         87
 3.50   0.0000    221.6176    773.3508 -32.33     667.8486     1.262           25     1.233      1.036  0.002335948  20.9883         88
 7.43   0.0000    216.1229    881.6307 -66.69      91.0254     1.120           25     0.572      3.659  0.002335419  23.1521         89
 3.50   0.0000    264.9534     65.7731 -32.20     65206.04     2.028           25     1.996      1.506   0.00233674  16.0143         90
 4.32   0.0000    243.0270    111.0771 -85.87     1113.296     2.181           25     1.625      2.295  0.002335419  20.4335         91
 6.77   0.0000    229.2600    546.3682 -62.66     146.9223     1.147           25     0.927      2.639  0.002335948  22.6323         92
 4.17   0.0000    254.5277    611.2526 -44.96     2889.648     2.599           25     2.118      2.303  0.002334626  19.3979         93
 4.56   0.0000    238.4033    837.2197  -0.07     361.1116     1.538           25     1.343      1.645  0.002335419  21.6559         94
 7.00   0.0000    232.2851   1551.6707  42.41     71.88439     0.554           25     0.344      1.046  0.002333833  23.4084         95
 6.05   0.0000    238.8988   1477.2656 -62.39     78.73188     1.007           25     0.650      1.251  0.002335155  23.3096         96
 5.07   0.0000    249.5192    105.7907 -39.60     307.2783     1.353           25     1.158      1.139  0.002335419  21.8312         97
 6.74   0.0000    247.9741   1412.9532  34.10      86.1856     0.809           25     0.777      1.779   0.00233674  23.2114         98
 6.52   0.0000    250.1559   1549.1664 -46.24      105.318     0.825           25     0.674      1.399   0.00233674  22.9937         99
 8.32   0.0000    248.6070    149.8001  18.07     89.37352     0.742           25     0.453      1.161  0.002334626  23.1720        100
 3.50   0.0000    286.7198   1484.9985 -34.86     19669.17     1.803           25     1.773      1.412  0.002336212  17.3155        101
 3.50   0.0000    281.0606   1520.9103  78.86     4815.296     1.578           25     1.503      1.182  0.002334626  18.8434        102
 7.88   0.0000    264.4987    722.9905 -89.56      160.016     0.852           25     0.694      3.681  0.002334626  22.5396        103
 6.08   0.0000    264.5280    122.1684 -89.38     168.4028     0.938           25     0.736      1.172  0.002335683  22.4841        104
 4.61   0.0000    269.9497   1272.2324   9.29     332.0269     1.380           25     1.179      1.430  0.002336212  21.7471        105
 7.75   0.0001    270.3510   1248.7195  48.76      39.9917     0.560           25     0.340      1.049  0.002334626  24.0451        106
 3.50   0.0000    302.1461    199.9575  -1.01     15669.89     1.754           25     1.748      1.288  0.002335683  17.5623        107
 8.12   0.0000    278.4984    555.4962 -45.05     73.65052     0.503           25     0.497      1.826  0.002333833  23.3821        108
 4.55   0.0000    292.5302   1474.2421 -21.60     646.6346     1.506           25     1.241      1.341  0.002335683  21.0234        109
 5.27   0.0000    291.4895    246.7583 -31.60     150.7377     1.130           25     0.933      1.264   0.00233489  22.6044        110
 3.50   0.0000    301.2911    561.8903  -3.92     844.8826     1.383           25     1.345      1.118  0.002333304  20.7330        111
 5.62   0.0000    307.7112     83.4766  74.73     284.4345     1.692           25     1.285      2.486  0.002333568  21.9150        112
 3.50   0.0000    321.1615    695.6137 -47.99     11341.73     1.682           25     1.667      1.113  0.002336476  17.9133        113
 3.98   0.0000    320.8418    639.7523 -62.45      658.884     2.244           25     1.508      3.117  0.002336476  21.0030        114
 4.25   0.0000    326.5584    593.7395  -1.29     1476.001     1.915           25     1.868      1.307  0.002335683  20.1273        115
 7.56   0.0000    310.0077    315.3219  87.28     190.8383     0.749           25     0.679      2.189  0.002336212  22.3483        116
 5.25   0.0000    315.9547    225.1773  -9.26     216.5937     1.107           25     0.728      1.479  0.002336212  22.2109        117
 3.71   0.0000    331.2021     91.6054 -20.61     425.9005     1.213           25     1.064      1.122  0.002335155  21.4767        118
 4.22   0.0000    328.4932   1544.6573   0.89     346.8696     1.102           25     0.968      1.111  0.002334097  21.6996        119
 3.62   0.0000    349.0294     52.9462 -35.30     961.0113     1.319           25     1.295      1.091  0.002336476  20.5932        120
 3.50   0.0000    367.2354    759.4962 -26.09     11394.62     1.732           25     1.685      1.148  0.002333568  17.9082        121
 5.45   0.0000    347.3217     40.6653 -50.68     137.2366     0.987           25     0.848      1.076  0.002333833  22.7063        122
 3.50   0.0000    360.3835   1498.9019 -13.41     1923.318     1.548           25     1.385      1.192   0.00233489  19.8399        123
 3.50   0.0000    394.2159    229.6349 -70.43     39785.49     1.952           25     1.907      1.446  0.002336476  16.5507        124
 3.50   0.0000    359.7347   1032.5051  38.29     455.3343     1.217           25     1.170      1.021   0.00233489  21.4042        125
 4.74   0.0000    374.2932    752.1290  51.98     374.1976     2.168           25     1.272      2.524  0.002334362  21.6172        126
 4.80   0.0000    369.4625     69.8472 -56.93      220.528     1.299           25     1.090      1.145   0.00233489  22.1913        127
 3.74   0.0000    372.4083   1082.3356 -32.85     345.8453     1.433           25     1.350      1.754  0.002337269  21.7028        128
 6.16   0.0000    368.3817    208.3981 -49.89     143.4423     1.080           25     0.933      1.297  0.002335155  22.6583        129
 3.99   0.0000    374.3221     85.4926 -20.10     206.7688     0.963           25     0.937      1.086  0.002334097  22.2613        130
 3.50   0.0000    396.2272   1459.7446 -45.85     7937.318     1.624           25     1.598      1.190  0.002336476  18.3008        131
 4.45   0.0000    379.1256    123.9208  61.23      290.423     1.113           25     1.110      1.188  0.002334626  21.8924        132
 3.50   0.0000    397.1835    352.8708 -58.84     8992.457     1.677           25     1.629      1.191  0.002337004  18.1653        133
 5.17   0.0000    381.4269     65.5967  24.25     237.2908     1.219           25     0.932      1.254  0.002335419  22.1118        134
 3.50   0.0000    392.8812   1087.1532  12.39     1861.167     1.405           25     1.374      1.089  0.002334626  19.8755        135
 5.14   0.0000    395.6750    625.1777 -87.51      578.197     1.901           25     1.613      4.621  0.002336212  21.1448        136
 7.24   0.0000    381.7726      9.7077   6.31     189.7211     0.910           25     0.766      4.400   0.00233489  22.3547        137
 4.10   0.0000    388.2085   1193.8507 -68.22     181.9101     0.938           25     0.836      1.215  0.002337004  22.4004        138
