#   1 KRON_RADIUS            Kron apertures in units of A or B                         
#   2 MAGERR_APER            RMS error vector for fixed aperture mag.                   [mag]
#   3 Y_IMAGE                Object position along y                                    [pixel]
#   4 X_IMAGE                Object position along x                                    [pixel]
#   5 THETA_IMAGE            Position angle (CCW/x)                                     [deg]
#   6 FLUX_APER              Flux vector within fixed circular aperture(s)              [count]
#   7 A_IMAGE                Profile RMS along major axis                               [pixel]
#   8 THRESHOLD              Detection threshold above background                       [count]
#   9 B_IMAGE                Profile RMS along minor axis                               [pixel]
#  10 FLUX_RADIUS            Fraction-of-light radii                                    [pixel]
#  11 FLUXERR_APER           RMS error vector for aperture flux(es)                     [count]
#  12 MAG_APER               Fixed aperture magnitude vector                            [mag]
#  13 NUMBER                 Running object number                                     
 3.50   0.0006     52.4330     61.7851  -1.53     151932.9     6.647           15     6.022     10.879     79.57745  15.0959          1
 3.50   0.0004     58.9505   1076.9386  81.87     241497.3     2.119           15     1.993      2.832     79.55043  14.5927          2
 3.50   0.0035     15.7535    983.4631 -88.04      25032.7     4.568           15     2.012      6.681     79.54143  17.0537          3
 3.50   0.0440     16.2663    382.9737 -60.13     1965.756     1.470           15     1.238      2.563     79.57745  19.8162          4
 3.50   0.0043     17.0164     89.4733 -38.81     20327.16     1.668           15     1.628      2.719     79.62244  17.2798          5
 3.50   0.0016     13.8116   1444.2358 -43.73      52827.5     1.732           15     1.705      2.670     79.58644  16.2428          6
 4.25   0.0831     13.2794    839.4593 -64.29     1039.447     1.755           15     1.135      3.501     79.54143  20.5080          7
 3.50   0.1390      9.1434   1182.2228 -58.17     621.8527     1.088           15     1.052      2.189     79.60445  21.0658          8
 3.50   0.1937      5.7230   1467.8273  -3.91     424.2633     1.183           15     0.926      2.471     75.67387  21.4809          9
 4.00   0.0371      3.6141    143.2476  67.80     2025.256     1.689           15     1.561      3.569     69.20652  19.7838         10
 5.03   0.0986      3.6377    183.7684 -16.02     763.5202     1.193           15     0.959      3.252     69.29962  20.8429         11
 6.83   0.2029      2.4338    843.2668  19.71     346.5045     0.732           15     0.456      3.122     64.74646  21.7007         12
 6.06   0.1492      1.8042    302.4686   3.74     452.4421     0.943           15     0.716      3.346     62.14967  21.4111         13
 3.78   0.0199     23.8595    365.4591   4.31     4350.372     1.406           15     1.341      2.714     79.53242  18.9537         14
 3.50   0.0625     23.0221    381.4540  24.11     1382.786     1.355           15     1.214      2.893     79.60445  20.1981         15
 3.50   0.3445     17.3073   1213.4205  41.48     250.7957     0.956           15     0.859      1.954     79.55043  22.0517         16
 3.50   0.4779     14.7703   1561.4890  -0.83     180.7663     0.945           15     0.720      2.259     79.54143  22.4072         17
 5.13   0.4565     15.4900    192.9881  -3.42     189.2853     0.788           15     0.499      2.591     79.55944  22.3572         18
 3.50   0.0353     33.1031   1108.5421  62.13     2442.669     2.061           15     1.306      3.424     79.50539  19.5803         19
 5.07   0.1269     22.8381    696.7360  14.91     680.8682     0.927           15     0.843      2.345     79.56844  20.9673         20
 5.64   0.5771     20.9432    212.0454 -45.15     149.7109     0.892           15     0.530      2.562     79.55944  22.6119         21
 4.02   0.2013     24.2986   1451.6597 -46.75     428.9598     1.018           15     0.855      2.561     79.50539  21.4690         22
 4.67   0.0514     32.4480    325.0097 -26.15     1680.536     1.563           15     1.264      3.223     79.60445  19.9864         23
 6.92   0.2939     24.8343    529.8266  45.19     294.0574     0.759           15     0.567      2.639     79.57745  21.8789         24
 6.71   0.1587     25.9111    701.3083  17.52     544.0784     0.916           15     0.682      4.272     79.49638  21.2108         25
 5.31   0.1281     33.6394     14.6521  53.71     674.6398     0.979           15     0.853      2.910     79.57745  20.9773         26
 3.50   0.0946     37.0468   1519.9733 -74.83     913.3905     1.084           15     1.067      2.101     79.60445  20.6484         27
 4.62   0.0536     43.2929    438.5793 -53.91      1612.55     1.729           15     1.304      3.859     79.55043  20.0312         28
 3.50   0.0609     38.0196   1169.1295  12.61     1418.957     1.289           15     1.179      2.603     79.61344  20.1701         29
 3.50   0.0004     79.0623    535.8591 -63.07       231853     1.999           15     1.965      2.779     79.53242  14.6370         30
 3.80   0.0610     41.4935    913.7980 -64.45     1416.618     1.227           15     1.051      2.285     79.54143  20.1719         31
 7.06   0.2195     33.9667   1066.4921  58.09      393.513     0.803           15     0.311      2.317     79.52341  21.5626         32
 3.50   0.4069     38.6000   1224.6489 -30.78     212.5112     1.228           15     0.776      2.313     79.62244  22.2315         33
 3.98   0.0812     49.4767    263.4285 -82.12     1064.113     1.552           15     1.130      3.369     79.55944  20.4825         34
 4.64   0.2897     42.6057    226.7916  40.20     298.2358     1.079           15     0.654      2.584     79.55043  21.8636         35
 6.74   0.5133     39.4747   1126.5171 -43.85     168.2215     0.504           15     0.495      1.950      79.5144  22.4853         36
 3.79   2.2830     41.4937   1000.3300  -1.36     37.82919     1.054           15     0.499      1.769     79.52341  24.1054         37
 3.50   0.5387     46.5432   1429.2083  87.55     160.5334     0.923           15     0.722      1.896     79.63144  22.5361         38
 6.67   0.1964     45.7285    473.0389 -10.42     439.9734     0.733           15     0.681      3.025     79.56844  21.4414         39
 3.50   0.1313     49.4534   1433.9270   9.10     657.8093     1.096           15     0.936      2.180     79.53242  21.0047         40
 5.18   0.1566     46.8039    664.5821  -3.69     551.5414     0.953           15     0.724      2.668     79.54143  21.1961         41
 6.15   0.1293     50.2181    119.8695  39.13     668.4885     0.807           15     0.669      2.949     79.60445  20.9873         42
 8.27   0.2129     49.3352    879.6919  46.34     405.7375     0.567           15     0.339      2.747     79.55043  21.5294         43
 3.50   0.0103     74.1091    126.4795 -33.04     8355.409     1.503           15     1.437      2.567      79.5144  18.2451         44
 5.86   0.2717     58.9934    469.1689  53.55     318.0837     0.918           15     0.474      2.430     79.57745  21.7936         45
 3.50   0.0881     65.0521   1146.3165  -0.29     980.2261     1.444           15     1.193      3.234      79.5144  20.5717         46
 5.64  99.0000     57.5757   1240.1871 -21.10    -56.23118     0.749           15     0.444      2.083     79.55944  99.0000         47
 4.17  99.0000     65.6561   1514.5503 -81.65    -113.7518     0.917           15     0.484      1.913     79.55944  99.0000         48
 4.99   0.1966     66.6765   1414.3184 -42.10     439.2983     1.020           15     0.862      2.662     79.54143  21.4431         49
 7.28   0.0978     68.4343     17.8153  78.11     883.7417     1.055           15     0.885      5.023     79.57745  20.6842         50
 3.50   0.3297     70.9527   1320.7626 -65.92     262.1346     1.010           15     0.818      2.237     79.58644  22.0037         51
 8.63   0.0475     75.6857     80.4453 -38.45     1819.406     1.551           15     0.939      8.926     79.55043  19.9002         52
 3.50   0.0003    120.9301    787.4855 -53.39     344482.2     2.055           15     2.021      2.818     79.50539  14.2071         53
 3.50   0.0410     81.3387    419.7172 -81.40     2108.474     1.587           15     1.314      3.092     79.52341  19.7401         54
 3.84   0.0188     89.6813    375.3947 -15.16     4587.184     2.397           15     2.065      4.806     79.57745  18.8961         55
 7.72   0.2814     73.9792    732.2733  88.65     307.2475     0.662           15     0.446      2.799     79.61344  21.8313         56
 3.50   0.0068     95.5787     54.3880  31.88     12671.52     1.639           15     1.612      2.784     79.55944  17.7929         57
 3.50   0.1915     78.5913   1031.9655  -4.49     451.2211     1.095           15     0.928      2.515     79.58644  21.4140         58
 7.43   1.1067     73.6413   1255.6760 -46.35     78.06483     0.584           15     0.329      1.880     79.55043  23.3189         59
 6.48   0.0833     82.9982    930.8804  35.38     1037.091     1.250           15     0.967      4.565     79.57745  20.5105         60
 5.35   0.0697     87.5067    757.2294  64.46     1238.931     1.285           15     1.195      3.798     79.54143  20.3174         61
 3.79   0.2375     86.9773   1358.2859 -79.17     363.8406     1.119           15     0.894      2.383     79.56844  21.6477         62
 6.23   0.0952     86.7000    862.2626 -36.18     907.1944     1.407           15     0.998      4.896     79.52341  20.6557         63
 5.33   0.0628    141.2934    884.3462  52.27      1374.32     2.182           15     1.014      4.797     79.52341  20.2048         64
 5.03   0.0951     90.7042   1043.9059  53.72     907.9844     1.594           15     0.914      3.637     79.47836  20.6548         65
 3.50   0.0692     90.6289    494.1025 -78.53     1248.192     1.205           15     1.125      2.421      79.5144  20.3093         66
 6.27   0.1621     87.7103    810.8326 -66.09      532.994     0.934           15     0.667      3.077     79.54143  21.2332         67
 6.08   1.2945     85.0338   1559.0720  45.28     66.75443     0.911           15     0.525      2.503     79.56844  23.4888         68
 6.91   0.1351     85.7778    923.1917 -46.11     639.4838     0.760           15     0.561      3.578     79.55944  21.0354         69
 3.79   0.0297     97.1720    451.1183 -15.24     2909.962     2.158           15     1.288      3.769     79.56844  19.3903         70
 3.75   0.2277     94.2044    387.5457   0.79      379.736     0.925           15     0.726      2.056     79.63144  21.6013         71
 5.99   0.5245     95.9941    559.7446 -89.68     164.9087     0.676           15     0.436      1.978     79.64043  22.5069         72
 7.61   0.3207     93.6627    870.6544 -44.67      269.322     0.584           15     0.329      2.235     79.54143  21.9743         73
 5.82   0.1175    101.7271    517.3472  34.32     734.7764     1.114           15     0.881      3.524     79.53242  20.8846         74
 4.54   0.1652    107.3400    861.3597  41.72     523.2788     0.978           15     0.859      2.175     79.57745  21.2532         75
 4.59   0.0913    114.3043    414.1663 -68.21     945.9858     1.226           15     1.013      3.328      79.5144  20.6103         76
 5.58   0.2164    106.9801   1420.9814 -40.64     399.3461     0.798           15     0.763      2.743     79.56844  21.5466         77
 6.57   0.2260    106.4793    180.0427  -2.31     382.1572     0.780           15     0.499      2.495     79.54143  21.5944         78
 3.51   0.7752    109.9083   1513.3596  20.21     111.3868     0.884           15     0.681      1.995     79.50539  22.9329         79
 3.50   0.1181    116.1240    989.4617 -58.20     731.1182     1.138           15     1.019      2.541     79.52341  20.8900         80
 4.21   0.0673    116.2476     65.0520  14.02     1285.172     1.548           15     1.061      3.440     79.58644  20.2776         81
 3.50   0.1562    116.7219    152.4536 -86.25     552.8585     1.123           15     0.971      2.198     79.52341  21.1935         82
 4.01   0.2770    117.6549    911.8856 -66.63     311.7781     0.935           15     0.682      2.548     79.53242  21.8154         83
 3.64   0.0716    125.2984    492.6189  -0.32     1205.895     1.665           15     1.219      3.524     79.53242  20.3467         84
 3.50   0.0004    161.4541   1466.8248 -58.74     195253.4     1.941           15     1.902      2.759     79.61344  14.8235         85
 7.32  11.7336    118.4848   1400.5156 -45.05       7.3569     0.503           15     0.497      1.898     79.48737  25.8833         86
 4.30   0.0732    130.2065    416.2744  57.73     1180.626     1.100           15     1.057      2.305     79.61344  20.3697         87
 3.50   0.4851    127.2841   1476.9161  64.33     178.0001     0.882           15     0.673      1.711     79.50539  22.4239         88
 3.66   0.1624    128.3044    884.3072  39.90     531.5745     0.974           15     0.855      2.210     79.48737  21.2361         89
 8.22   0.2396    129.4937    461.4671  79.24     360.5147     0.500           15     0.499      2.589     79.52341  21.6577         90
 7.97   4.5392    134.2148     97.6237 -71.27     19.03256     0.773           15     0.439      2.858     79.55043  24.8513         91
 6.93   1.7682    134.2994   1274.6626  43.05     48.84874     0.564           15     0.340      1.862     79.53242  23.8279         92
 5.52   0.6619    138.1961   1599.6533 -73.31     98.78233     0.751           15     0.443      2.064     60.20591  23.0633         93
 3.50   0.0020    169.2865    875.6407 -68.74     43881.98     1.816           15     1.770      2.768     79.55043  16.4443         94
 3.50   0.1047    150.7619   1278.9016  88.63     824.4921     1.163           15     1.081      2.480     79.48737  20.7595         95
 3.72   0.0219    164.2101   1444.3116  58.08     3954.163     1.478           15     1.334      2.713     79.56844  19.0574         96
 3.50   0.1661    154.5426     80.6307 -48.09     520.2849     1.063           15     0.915      2.140     79.59544  21.2594         97
 4.37   0.2479    155.2148   1578.5200  33.04     348.6453     0.963           15     0.777      2.329     79.59544  21.6940         98
 4.42   0.0866    164.9884    574.8645  77.32     997.9759     1.398           15     1.054      3.016     79.61344  20.5522         99
 5.40   0.3039    154.6382    822.7685 -65.92     284.4096     0.715           15     0.649      2.378     79.58644  21.9151        100
 3.50   0.0334    165.7110    102.5932 -26.53     2590.085     1.316           15     1.213      2.339     79.54143  19.5167        101
 6.06   0.2371    159.1147    491.3987   9.60     364.4577     1.137           15     0.669      3.163     79.55944  21.6459        102
 3.98   0.0564    168.5005   1367.4280  -3.63     1530.317     1.273           15     1.097      2.530      79.5144  20.0880        103
 4.33   0.0773    167.9214    649.5801  10.30     1117.912     1.346           15     1.111      3.009     79.57745  20.4290        104
 3.88   0.0441    179.2475    573.4441  24.34     1960.268     1.806           15     1.458      3.788     79.58644  19.8192        105
 7.05  99.0000    168.5139    168.5129  44.91    -13.81906     0.504           15     0.496      1.994     79.50539  99.0000        106
 7.80   0.4918    172.5058     30.4449  54.32     175.5533     0.503           15     0.494      2.750     79.50539  22.4390        107
 3.50   0.0001    258.9322    995.8043 -40.78     597391.9     2.197           15     2.091      2.819     79.61344  13.6094        108
 3.68   0.0181    191.7790   1349.0507 -29.04     4764.467     1.434           15     1.382      2.568     79.58644  18.8550        109
 4.98   0.0373    185.8884   1353.4352 -60.76     2315.626     1.564           15     1.434      4.408     79.55043  19.6383        110
 6.84   0.1956    182.3312     58.4811 -53.73     441.5607     0.998           15     0.697      3.259     79.53242  21.4375        111
 6.21   0.1555    186.4667    834.7823 -22.86     555.8209     1.172           15     0.796      4.068     79.58644  21.1877        112
 3.50   0.0046    209.8897    826.0682  -8.26      18916.3     5.062           15     2.311      7.833     79.52341  17.3579        113
 7.38   0.4500    183.4921    493.5126  45.65     191.8409     0.502           15     0.498      2.384     79.49638  22.3426        114
 3.62   0.0052    229.0160    560.6641 -22.76     16512.05     4.037           15     3.709      8.166     79.57745  17.5055        115
 3.50   0.0095    205.7506    547.4508  51.32     9080.812     1.491           15     1.485      2.584     79.60445  18.1547        116
 3.50   0.0002    264.9563     65.7550 -47.06     441264.6     2.161           15     2.086      2.817     79.59544  13.9383        117
 5.54   0.1028    194.7835    447.7415 -54.85     840.4289     1.067           15     0.894      3.009     79.57745  20.7387        118
 3.50   0.0096    211.4027   1304.6294 -28.12     8972.556     1.498           15     1.454      2.581     79.55043  18.1677        119
 3.88   0.0326    209.9436    683.1042 -79.14     2649.141     1.698           15     1.384      3.302     79.50539  19.4922        120
 6.49   0.1171    204.5183    935.3228 -12.20     737.4755     1.134           15     0.832      4.496     79.54143  20.8806        121
 3.66   0.1639    204.7073    182.1929 -25.95     527.1103     1.088           15     0.881      2.667     79.55043  21.2452        122
 5.02   0.2933    205.1469    940.4786   2.45     294.4882     0.957           15     0.726      2.071     79.52341  21.8773        123
 3.50   0.0084    223.2675   1224.6123  77.27     10295.87     1.482           15     1.452      2.497     79.61344  18.0183        124
 3.50   0.1383    208.2826   1224.1099  -9.72     624.4844     1.086           15     0.922      2.179     79.52341  21.0612        125
 5.60   0.0786    216.7452    881.1793 -58.27     1100.007     1.992           15     0.918      4.657     79.59544  20.4465        126
 4.87   0.0511    216.7865    739.7549 -45.18     1689.836     1.731           15     1.248      4.702     79.57745  19.9804        127
 3.50   0.0247    221.6765    773.3259 -20.01     3499.439     1.345           15     1.265      2.419     79.52341  19.1900        128
 6.22   0.1432    214.2040    791.6286 -30.93     603.5598     1.057           15     0.805      3.548     79.55944  21.0982        129
 3.71   0.0127    243.0105    111.1027 -86.87     6794.736     2.419           15     1.752      4.323     79.53242  18.4696        130
 3.83   0.0048    254.5513    611.2030 -40.46      17859.6     2.890           15     2.353      5.370     79.61344  17.4203        131
 5.94   0.0540    229.3252    546.4078 -52.26     1601.576     1.514           15     1.120      5.470     79.60445  20.0386        132
 7.38   0.8761    220.5160   1401.4563  63.36     98.57059     0.500           15     0.498      2.221     79.52341  23.0656        133
 3.50   0.0299    238.3811    837.2602  -1.16     2888.968     1.874           15     1.611      3.884     79.57745  19.3981        134
 3.50  99.0000    231.9676   1551.6797 -22.09    -24.56166     0.883           15     0.678      1.829     79.55043  99.0000        135
 3.88   0.1436    238.9686   1477.4473 -68.21     601.8446     1.283           15     0.919      2.752     79.60445  21.1013        136
 4.96   0.0358    249.4536    105.7775 -19.28     2414.331     1.432           15     1.278      3.325     79.60445  19.5930        137
 4.78   0.1061    247.8289   1412.9543  45.09     815.0767     1.290           15     1.085      3.420     79.60445  20.7720        138
