#   1 KRON_RADIUS            Kron apertures in units of A or B                         
#   2 MAGERR_APER            RMS error vector for fixed aperture mag.                   [mag]
#   3 Y_IMAGE                Object position along y                                    [pixel]
#   4 X_IMAGE                Object position along x                                    [pixel]
#   5 THETA_IMAGE            Position angle (CCW/x)                                     [deg]
#   6 FLUX_APER              Flux vector within fixed circular aperture(s)              [count]
#   7 A_IMAGE                Profile RMS along major axis                               [pixel]
#   8 THRESHOLD              Detection threshold above background                       [count]
#   9 B_IMAGE                Profile RMS along minor axis                               [pixel]
#  10 FLUX_RADIUS            Fraction-of-light radii                                    [pixel]
#  11 FLUXERR_APER           RMS error vector for aperture flux(es)                     [count]
#  12 MAG_APER               Fixed aperture magnitude vector                            [mag]
#  13 NUMBER                 Running object number                                     
 4.20   0.0006     52.3034     61.8495   2.51     151911.7     4.442     65.14034     3.989      9.601      83.6797  15.0960          1
 3.77   0.0036     15.6711    983.4545 -87.99     25068.34     3.861     65.14034     1.647      6.515     83.74611  17.0522          2
 3.62   0.0045     17.0230     89.4899 -26.39     20375.44     1.422     65.14034     1.344      2.597     83.77456  17.2772          3
 3.50   0.0017     13.8104   1444.2446 -29.34     52877.64     1.547     65.14034     1.516      2.614       83.803  16.2418          4
 9.00   0.0377      3.3280    143.3375 -44.59      2067.06     0.577     65.14034     0.334      2.850       71.786  19.7616          5
 5.36   0.0369     16.2085    382.9816  89.06     2463.055     0.890     65.14034     0.752      2.536     83.76508  19.5713          6
 4.66   0.0207     23.7973    365.4003 -84.17     4402.227     1.089     65.14034     1.032      2.710       83.803  18.9408          7
 8.20   0.0527     23.2996    381.3436 -42.82     1726.163     0.566     65.14034     0.338      2.514     83.68919  19.9573          8
 3.50   0.0004     58.9551   1076.9459  70.23       241551     1.898     65.14034     1.774      2.749     83.78404  14.5925          9
 6.03   0.0365     33.4796   1108.6080  64.27     2496.227     1.510     65.14034     0.629      3.497     83.78404  19.5568         10
 7.91   0.0523     32.4033    324.8148 -18.96     1738.038     0.755     65.14034     0.449      2.984     83.76508  19.9499         11
 5.58   0.0946     37.0213   1519.9889  21.84     961.2715     0.611     65.14034     0.611      2.034     83.76508  20.5929         12
 6.31   0.0619     38.1393   1169.1509  44.59     1469.374     0.749     65.14034     0.572      2.578     83.76508  20.1322         13
 6.16   0.0618     41.5179    913.9079  -0.91      1470.76     0.771     65.14034     0.500      2.216     83.74611  20.1311         14
 3.50   0.0004     79.0638    535.8656 -71.09     231900.8     1.799     65.14034     1.767      2.723     83.73663  14.6367         15
 3.76   0.0108     74.1700    126.4531 -28.84     8407.829     1.258     65.14034     1.182      2.503       83.803  18.2383         16
 6.21   0.0422     81.4861    419.7835 -89.81     2156.085     0.968     65.14034     0.724      3.124     83.78404  19.7158         17
 6.69   0.0196     89.5848    375.0995 -11.54     4643.833     1.320     65.14034     1.036      4.693     83.76508  18.8828         18
 3.50   0.0003    120.9212    787.5002 -59.71       344521     1.833     65.14034     1.825      2.736     83.68919  14.2070         19
 3.94   0.0071     95.6125     54.3898 -38.35     12721.86     1.297     65.14034     1.241      2.656     83.75559  17.7886         20
 6.66   0.0698     90.6038    494.2029 -18.24     1303.531     0.728     65.14034     0.456      2.290     83.76508  20.2622         21
 6.22   0.0310     97.0223    451.4500  -4.42     2935.416     1.053     65.14034     0.780      3.589       83.803  19.3808         22
 6.76   0.0742    130.4583    416.4763  21.10     1226.683     0.500     65.14034     0.498      1.983     83.75559  20.3282         23
 3.50   0.0005    161.4535   1466.8450 -66.04     195295.6     1.744     65.14034     1.727      2.703     83.78404  14.8233         24
 3.50   0.0021    169.3001    875.6627 -39.94      43932.3     1.534     65.14034     1.515      2.630     83.73663  16.4430         25
 4.65   0.0227    164.1470   1444.2490 -65.13     4000.573     1.073     65.14034     0.995      2.629     83.78404  19.0447         26
 3.90   0.0345    165.6745    102.5966 -41.51     2640.288     1.017     65.14034     0.920      2.327     83.83143  19.4959         27
 7.35   0.0575    168.4966   1367.4883  45.85     1579.349     0.502     65.14034     0.498      2.363     83.68919  20.0538         28
 7.70   0.0342    185.9798   1353.4911 -89.21      2657.85     0.796     65.14034     0.500      3.536     83.75559  19.4887         29
 4.74   0.0173    191.8871   1349.0082   9.23     5258.549     1.093     65.14034     1.083      2.672     83.78404  18.7478         30
 4.97   0.0048    209.7816    825.9514  -7.57     18975.56     3.145     65.14034     1.693      7.667     83.79352  17.3545         31
 3.71   0.0100    205.7242    547.4327 -27.80     9130.938     1.268     65.14034     1.220      2.504     83.76508  18.1487         32
 3.65   0.0101    211.4296   1304.5750 -26.27     9024.652     1.248     65.14034     1.242      2.469     83.79352  18.1614         33
 5.99   0.0336    209.9860    683.0103 -88.12     2710.117     1.026     65.14034     0.734      3.203     83.75559  19.4675         34
 5.59   0.0055    229.1618    560.4160 -36.10     16551.14     2.830     65.14034     2.521      8.700     83.81248  17.5029         35
 3.56   0.0088    223.3353   1224.5809 -36.23     10359.46     1.273     65.14034     1.233      2.421       83.803  18.0117         36
 3.50   0.0002    258.9106    995.8257 -71.98     597411.6     1.918     65.14034     1.899      2.763     83.76508  13.6093         37
 4.31   0.0256    221.5924    773.3193 -14.50     3552.708     1.060     65.14034     0.974      2.395     83.78404  19.1736         38
 3.50   0.0002    264.9516     65.7890 -57.20     441310.5     1.875     65.14034     1.852      2.750     83.82195  13.9381         39
 5.57   0.0129    243.0064    111.0418 -88.92     7067.834     1.582     65.14034     1.198      4.557       83.803  18.4268         40
 6.43   0.0310    238.3742    837.2224 -31.21     2938.731     1.016     65.14034     0.916      3.902       83.803  19.3796         41
 4.83   0.0051    254.5080    611.2502 -38.55      17903.3     2.022     65.14034     1.655      5.061     83.74611  17.4177         42
 6.33   0.0289    249.4847    105.5596 -21.18     3147.349     0.902     65.14034     0.882      4.030     83.77456  19.3051         43
 3.50   0.0009    286.7240   1485.0078 -63.00     104267.7     1.644     65.14034     1.627      2.649     83.81248  15.5046         44
 6.27   0.0392    269.9772   1271.9922  -1.56      2320.72     0.789     65.14034     0.784      3.021     83.77456  19.6359         45
 3.50   0.0039    281.0651   1520.9044 -20.69     23032.25     1.367     65.14034     1.351      2.493     83.74611  17.1442         46
 3.50   0.0012    302.1579    199.9657 -33.04     76320.49     1.618     65.14034     1.605      2.657     83.82195  15.8434         47
 5.49   0.0191    292.5531   1474.0583  -1.34     4762.018     1.049     65.14034     0.933      3.308     83.77456  18.8555         48
 4.42   0.0219    301.2180    561.9072  18.86     4146.648     1.129     65.14034     1.058      2.754     83.77456  19.0058         49
 3.50   0.0018    321.1726    695.6197 -26.26     50673.82     1.553     65.14034     1.509      2.620     83.78404  16.2880         50
 7.87   0.0331    307.7152     83.4339  80.94     2752.114     1.003     65.14034     0.476      4.026     83.78404  19.4508         51
 6.17   0.0214    321.0647    639.6444 -67.67     4243.312     1.609     65.14034     0.861      4.321     83.77456  18.9807         52
 4.98   0.0093    326.5730    593.8109   7.14      9790.16     1.495     65.14034     1.367      4.238     83.79352  18.0730         53
 5.80   0.0544    328.6497   1544.8694  10.60     1672.287     0.732     65.14034     0.651      2.383     83.73663  19.9917         54
 4.93   0.0420    331.1288     91.6019 -14.07     2165.604     0.974     65.14034     0.736      2.300     83.82195  19.7111         55
 4.17   0.0188    349.0255     52.9406 -34.32     4837.008     1.109     65.14034     1.089      2.564     83.81248  18.8386         56
 3.50   0.0017    367.2481    759.5090  -9.25     52384.22     1.555     65.14034     1.529      2.622     83.72714  16.2520         57
 3.89   0.0097    360.4133   1498.9653  13.98     9348.449     1.270     65.14034     1.201      2.570     83.81248  18.1231         58
 4.06   0.0399    359.7190   1032.4745   1.63     2280.005     0.960     65.14034     0.930      2.305     83.73663  19.6552         59
 3.50   0.0004    394.2187    229.6441 -68.12       256521     1.801     65.14034     1.777      2.734       83.803  14.5272         60
 6.64   0.0245    374.3668    752.0930  47.82     3710.119     1.482     65.14034     0.696      4.490     83.73663  19.1265         61
 8.25   0.0509    369.4944     69.5316 -56.01     1786.626     0.501     65.14034     0.498      2.865     83.74611  19.9199         62
 6.81   0.0411    372.6188   1082.2681 -17.95     2214.521     0.948     65.14034     0.637      3.307     83.81248  19.6868         63
 7.60   0.1221    374.3250     85.3358 -44.52     744.9261     0.575     65.14034     0.335      2.200     83.72714  20.8697         64
 5.83   0.0554    379.2894    123.9578  -3.94     1642.245     0.729     65.14034     0.671      2.467     83.75559  20.0114         65
 3.50   0.0025    396.2292   1459.7554 -36.91     36509.92     1.475     65.14034     1.464      2.581     83.83143  16.6440         66
 3.50   0.0022    397.1713    352.8766 -25.80      41610.7     1.525     65.14034     1.501      2.624     83.77456  16.5020         67
 3.66   0.0106    392.8804   1087.1648  -9.50     8604.847     1.239     65.14034     1.206      2.471     83.77456  18.2131         68
 7.81   0.0245    395.9946    624.9952  71.33      3710.17     0.799     65.14034     0.798      4.484     83.74611  19.1265         69
 7.27   0.0792    406.4605    280.4913 -17.59     1147.808     0.500     65.14034     0.498      2.318     83.73663  20.4003         70
 5.30   0.0184    419.8942    157.4371  26.75      4929.98     1.448     65.14034     1.193      4.008     83.71765  18.8179         71
 3.50   0.0011    437.0088    250.3023 -32.19     83637.45     1.624     65.14034     1.615      2.670     83.74611  15.7440         72
 3.50   0.0001    460.3148    806.0232 -65.11     724720.6     1.935     65.14034     1.920      2.764     83.77456  13.3996         73
 7.45   0.0337    425.8697   1178.0779  43.77     2701.656     0.858     65.14034     0.661      3.869     83.71765  19.4709         74
 3.69   0.0139    432.1023   1420.5601 -11.63      6532.21     1.208     65.14034     1.109      2.374     83.71765  18.5123         75
 4.94   0.0348    433.1256    149.3873  -9.79     2615.497     0.981     65.14034     0.856      2.710     83.83143  19.5061         76
 4.38   0.0329    439.0159    303.9682 -20.07     2762.887     0.920     65.14034     0.913      2.365       83.803  19.4466         77
 5.20   0.0041    466.9002    848.8165  22.61     22256.86     6.820     65.14034     1.769     13.881     83.75559  17.1813         78
 3.54   0.0034    449.4023     19.5231 -30.68     26527.22     1.437     65.14034     1.406      2.612     83.79352  16.9908         79
 5.15   0.0204    444.2394    120.4318 -22.01     4472.372     1.210     65.14034     1.108      3.419     83.81248  18.9237         80
 3.50   0.0030    456.8024     32.7392  -3.30     29856.84     1.443     65.14034     1.422      2.591      83.8409  16.8624         81
 7.16   0.0762    442.5621    653.4972 -10.91     1192.633     0.500     65.14034     0.496      2.177     83.70817  20.3587         82
 5.48   0.0668    452.0169   1531.7256 -85.78     1363.253     0.721     65.14034     0.674      2.135      83.8409  20.2136         83
 3.99   0.0096    462.7450    466.8865  54.88     9502.288     1.308     65.14034     1.243      2.716     83.73663  18.1054         84
 4.66   0.0305    460.2122   1094.6180   6.35         2984     0.975     65.14034     0.925      2.650     83.76508  19.3630         85
 3.62   0.0077    471.1317    733.2081  79.83     11789.05     1.283     65.14034     1.279      2.523     83.83143  17.8713         86
 4.08   0.0110    470.3870    252.5030   5.65     8274.094     1.263     65.14034     1.233      2.692     83.75559  18.2557         87
 8.39   0.0414    460.5989    723.2239 -18.39     2199.871     0.756     65.14034     0.451      3.436     83.77456  19.6940         88
 3.50   0.0060    477.0223    921.4086 -70.99     15068.75     1.335     65.14034     1.318      2.491     83.78404  17.6048         89
 3.88   0.0160    477.0480   1275.3263 -57.55     5695.418     1.145     65.14034     1.027      2.467     83.74611  18.6612         90
 7.61   0.0946    475.3035   1166.6748  43.83     961.4479     0.561     65.14034     0.342      2.168     83.73663  20.5927         91
 6.22   0.0257    487.6810    837.9964 -83.71     3536.958     1.704     65.14034     0.715      4.801     83.79352  19.1784         92
 3.69   0.0146    483.0464   1069.0927 -24.30     6224.807     1.130     65.14034     1.125      2.353     83.71765  18.5647         93
 6.02   0.0574    477.7341    681.0251  -3.82     1584.536     0.725     65.14034     0.675      2.550     83.79352  20.0502         94
 5.29   0.0080    495.1190     81.1906  45.43     11411.21     2.066     65.14034     1.767      5.842     83.77456  17.9067         95
 5.45   0.0084    494.7936   1185.2228 -14.10     10849.84     2.599     65.14034     1.517      6.428     83.78404  17.9614         96
 5.72   0.0137    503.3142    761.2948 -38.41     6647.075     1.466     65.14034     1.337      4.806     83.68919  18.4934         97
 4.13   0.0234    501.1669    862.1559 -43.76     3888.255     1.112     65.14034     1.006      2.433     83.82195  19.0756         98
 5.64   0.0565    497.0226    364.6823 -87.03     1609.653     0.730     65.14034     0.667      2.265     83.78404  20.0332         99
 4.77   0.0067    514.4293   1459.5134  23.73     13595.09     3.563     65.14034     1.308      7.274     83.78404  17.7165        100
 5.66   0.0228    508.9268    163.3875  -3.75     4001.662     1.654     65.14034     0.787      4.325      83.8409  19.0444        101
 4.26   0.0238    512.8962   1177.7278 -61.45     3813.472     1.075     65.14034     0.992      2.462     83.73663  19.0967        102
 5.41   0.0318    518.3445    640.3340 -41.64      2856.63     1.060     65.14034     0.951      3.094     83.75559  19.4104        103
 6.49   0.0716    517.4171   1517.7679 -18.84     1270.274     0.723     65.14034     0.459      2.204       83.803  20.2903        104
 3.72   0.0102    539.3714    998.3492 -26.35     8911.439     1.257     65.14034     1.218      2.476     83.81248  18.1751        105
 6.75   0.0413    535.1268    402.7053  21.93     2204.196     0.939     65.14034     0.684      3.348     83.74611  19.6919        106
 3.70   0.0074    558.0494   1040.1455  18.85        12274     1.313     65.14034     1.296      2.574     83.79352  17.8275        107
 6.44   0.0872    554.9899    777.2524  89.44     1044.291     0.670     65.14034     0.434      2.063     83.83143  20.5029        108
 4.62   0.0104    570.3089     44.1189  51.69     8745.123     1.845     65.14034     1.271      4.070     83.73663  18.1956        109
 3.50   0.0018    579.6545    143.1783 -44.32        50113     1.563     65.14034     1.533      2.646     83.82195  16.3001        110
 5.36   0.0110    570.5286   1446.4730  17.88     8277.821     1.856     65.14034     1.391      5.311     83.70817  18.2552        111
 3.50   0.0018    581.2003    317.4489 -12.26      50058.6     1.570     65.14034     1.539      2.650      83.8409  16.3013        112
 5.79   0.0394    563.8646    137.6890 -21.27      2307.31     0.892     65.14034     0.686      2.683     83.74611  19.6422        113
 4.69   0.0037    595.7537    780.8385 -56.47     24462.64     3.023     65.14034     2.605      7.876       83.803  17.0787        114
 6.19   0.0306    575.3632   1000.3189  45.20     2969.372     1.005     65.14034     0.886      3.575     83.77456  19.3683        115
 4.45   0.0267    583.4443     74.1731 -17.03     3404.699     1.094     65.14034     0.938      2.448     83.83143  19.2198        116
 3.75   0.0063   1000.7644    540.9913  -8.94     14344.26     1.362     65.14034     1.329      2.643       83.803  17.6583        117
 7.83   0.0432   1599.7003     17.3366  43.09     1586.822     0.564     65.14034     0.340      2.556     63.10685  20.0487        118
 5.25   0.0159   1596.6635    653.0926 -59.61     5147.203     1.485     65.14034     1.346      4.124     75.44365  18.7711        119
 5.50   0.0297   1593.6263    372.3974  44.56     3044.023     1.077     65.14034     0.932      3.372     83.19421  19.3414        120
 8.20   0.0621   1592.4907   1383.5098 -45.05     1464.848     0.502     65.14034     0.498      2.904     83.69868  20.1355        121
 7.32   0.0867   1590.3160    565.3229 -44.66     1049.108     0.565     65.14034     0.340      1.930     83.72714  20.4979        122
 6.48   0.0537   1584.9933   1068.0237   1.49     1695.215     0.615     65.14034     0.610      2.462     83.78404  19.9769        123
 3.50   0.0051   1540.7362    133.3148 -47.70     17891.83     1.408     65.14034     1.367      2.585     83.73663  17.4184        124
 3.50   0.0006   1506.1389    267.6415 -39.96     164054.3     1.723     65.14034     1.706      2.701     83.78404  15.0125        125
 4.58   0.0446   1064.9565   1595.7683  -2.91      1906.51     0.881     65.14034     0.748      2.307     78.30563  19.8494        126
 5.63   0.0170    979.9975    796.2272 -68.28     5336.527     1.224     65.14034     1.180      4.151     83.77456  18.7319        127
 6.39   0.0294    977.0343    451.0101 -40.67     3097.933     0.784     65.14034     0.775      3.400     83.81248  19.3223        128
 5.05   0.0384    964.0334    414.7816   0.25     2368.107     0.891     65.14034     0.748      2.426       83.803  19.6140        129
 6.12   0.0215    949.9987    652.6572 -89.85     4243.876     1.224     65.14034     0.992      4.253     83.85037  18.9806        130
 5.24   0.0436    946.8032    443.5172  -1.66     2086.443     0.923     65.14034     0.719      2.652     83.78404  19.7515        131
 3.69   0.0095    938.3217   1065.6394  41.58     9590.492     1.248     65.14034     1.193      2.442     83.75559  18.0954        132
 7.35   0.0241    937.5718    514.6093  47.45     3778.843     1.032     65.14034     0.878      5.014     83.79352  19.1066        133
 4.11   0.0163    927.3743   1321.0085 -85.38     5593.381     1.159     65.14034     1.128      2.573     83.79352  18.6808        134
 3.57   0.0226    911.8421    836.9899  38.07     4033.353     1.095     65.14034     1.086      2.329       83.803  19.0358        135
 4.50   0.0398    911.3700    999.6253 -45.17     2287.561     0.962     65.14034     0.860      2.191     83.78404  19.6516        136
 3.50   0.0027    899.4661    301.0907 -18.69     33195.65     1.479     65.14034     1.444      2.612     83.75559  16.7473        137
 4.85   0.0120    895.2223    536.8345   2.48     7608.519     1.747     65.14034     1.407      4.473     83.79352  18.3467        138
