#   1 KRON_RADIUS            Kron apertures in units of A or B                         
#   2 MAGERR_APER            RMS error vector for fixed aperture mag.                   [mag]
#   3 Y_IMAGE                Object position along y                                    [pixel]
#   4 X_IMAGE                Object position along x                                    [pixel]
#   5 THETA_IMAGE            Position angle (CCW/x)                                     [deg]
#   6 FLUX_APER              Flux vector within fixed circular aperture(s)              [count]
#   7 A_IMAGE                Profile RMS along major axis                               [pixel]
#   8 THRESHOLD              Detection threshold above background                       [count]
#   9 B_IMAGE                Profile RMS along minor axis                               [pixel]
#  10 FLUX_RADIUS            Fraction-of-light radii                                    [pixel]
#  11 FLUXERR_APER           RMS error vector for aperture flux(es)                     [count]
#  12 MAG_APER               Fixed aperture magnitude vector                            [mag]
#  13 NUMBER                 Running object number                                     
 3.77   0.0005     52.3656     61.8381  -4.11     28841.52     5.767           25     5.156     10.709     13.11841  16.9000          1
 3.50   0.0030     15.7502    983.4642 -87.95     4761.784     4.430           25     1.919      6.868     13.11395  18.8556          2
 3.50   0.0036     17.0166     89.5020 -27.30     3932.045     1.584           25     1.535      3.098     13.11247  19.0635          3
 3.50   0.0014     13.8130   1444.2402 -50.19     10069.28     1.667           25     1.653      3.159     13.11841  18.0425          4
 4.41   0.0327     16.2316    382.9453 -68.30     435.8997     1.179           25     1.108      3.213     13.11989  21.4515          5
 6.18   0.0665     12.9454    839.5240 -53.69     214.1648     1.159           25     0.755      4.008     13.11098  22.2231          6
 6.27   0.1269      5.8499   1467.8611 -42.10     107.1749     0.830           25     0.681      2.814     12.52007  22.9748          7
 4.92   0.0310      3.4645    143.1826 -89.94     396.7415     1.495           25     1.267      3.984     11.32139  21.5537          8
 6.83   0.0716      3.8580    183.6363 -19.12     175.2233     0.927           25     0.685      3.438     11.55288  22.4410          9
 3.50   0.0831      9.2221   1182.3053  14.57     171.3272     0.946           25     0.830      2.327     13.11395  22.4654         10
 7.11   0.1149      1.5458    302.4866  39.07      95.0806     0.504           25     0.494      2.735     10.06136  23.1048         11
 3.50   0.0003     58.9477   1076.9407  75.51     46001.08     2.045           25     1.922      3.366     13.11247  16.3931         12
 3.88   0.0169     23.8041    365.4746  73.25      841.868     1.319           25     1.260      2.992     13.12434  20.7369         13
 5.46   0.1966     17.0724   1213.4948  89.94      72.4185     0.771           25     0.500      2.388      13.1095  23.4004         14
 7.67   0.3202     14.5140   1561.4911 -11.76     44.44717     0.500           25     0.500      2.622     13.10356  23.9304         15
 4.90   0.0437     23.0687    381.3569  68.74     325.8316     1.192           25     1.060      3.652     13.11544  21.7675         16
 3.84   0.0296     32.9996   1108.4679  65.17     480.8281     1.995           25     1.108      3.780     13.12286  21.3450         17
 5.84   0.0724     22.8925    696.8405 -45.60     196.5248     0.813           25     0.665      3.173     13.10356  22.3165         18
 4.81   0.0392     32.3472    325.0265 -20.34     363.4084     1.271           25     1.126      3.691     13.12137  21.6490         19
 3.50   0.0670     37.1702   1519.9764 -87.99     212.7104     1.004           25     0.908      2.457     13.11692  22.2305         20
 3.50   0.0471     37.9992   1169.0452  15.42     302.3284     1.136           25     1.112      2.817     13.12434  21.8488         21
 6.78   0.1115     33.7591     14.6046  71.89     127.7427     0.734           25     0.455      2.792     13.11989  22.7842         22
 5.40   0.0441     43.4825    438.4967 -73.85     322.7194     1.314           25     1.121      4.014     13.10356  21.7779         23
 3.50   0.0003     79.0643    535.8630 -57.44     44492.47     1.925           25     1.904      3.295     13.11247  16.4293         24
 4.38   0.0495     41.5828    913.7358 -33.51      287.803     1.061           25     0.919      2.838     13.11989  21.9023         25
 5.75   0.2895     38.6411   1224.6516 -43.67     49.20955     0.867           25     0.523      2.648     13.11692  23.8199         26
 5.56   0.0670     49.4918   1433.8137 -65.21     212.4316     0.954           25     0.923      3.027     13.11544  22.2320         27
 5.18   0.0728     49.4587    263.5749 -66.18     195.8722     1.195           25     0.955      3.480     13.12137  22.3201         28
 7.80   0.2379     42.3415    226.6744  45.68     59.84716     0.577           25     0.333      2.383     13.11098  23.6074         29
 7.05   0.3741     41.6549    999.6901 -46.62     38.05433     0.572           25     0.336      2.258      13.1095  24.0990         30
 8.16   0.0942     46.6941    664.6706 -43.78     151.1839     0.563           25     0.340      2.719      13.1095  22.6012         31
 6.12   0.0813     64.8561   1146.4165  14.61     175.3134     1.051           25     0.890      3.659     13.11989  22.4405         32
 3.50   0.0086     74.1151    126.4486 -21.43     1661.727     1.427           25     1.348      2.971     13.11247  19.9986         33
 6.35   1.9821     65.5015   1514.5056 -45.72     7.178506     0.501           25     0.499      2.311     13.10207  25.9099         34
 8.49   0.2508     66.5318   1414.4746 -44.06     56.75403     0.505           25     0.494      2.799     13.10504  23.6650         35
 6.53   0.1828     70.9779   1320.5319 -89.11     77.95403     0.789           25     0.499      2.520     13.12137  23.3204         36
 4.15   0.0329     81.3945    419.8273  85.88     432.5851     1.391           25     1.173      3.490     13.11692  21.4598         37
 3.50   0.0002    120.9218    787.4944 -42.80     65822.96     1.968           25     1.946      3.310     13.10653  16.0041         38
 4.45   0.0157     89.6612    375.3125  -8.91     905.2149     2.201           25     1.789      5.255      13.1095  20.6581         39
 6.18   0.1248     78.6917   1031.9766  -2.38     114.0806     0.736           25     0.670      2.870     13.11247  22.9070         40
 3.56   0.0058     95.6111     54.3885  -6.13     2439.796     1.499           25     1.459      3.068     13.11098  19.5816         41
 7.29   0.0705     82.9674    930.9600  44.16      202.083     0.895           25     0.533      3.777     13.12137  22.2862         42
 5.73   0.0525     87.5743    757.3250  46.61     271.1493     1.080           25     0.936      3.996     13.11544  21.9670         43
 6.11   0.1902     87.1081   1358.1217 -47.31     74.83224     0.830           25     0.673      2.812     13.10802  23.3648         44
 6.78   0.0743     90.7097   1043.9907  53.54     191.7564     1.023           25     0.635      3.691     13.11247  22.3431         45
 4.26   0.0526     90.5881    494.1471 -16.01      270.837     1.006           25     0.941      2.805     13.12286  21.9682         46
 9.28   0.0752     86.4881    862.0151 -32.06     189.5033     0.798           25     0.313      3.455     13.11692  22.3560         47
 7.82   0.1060     87.6720    810.6771 -45.24     134.3182     0.570           25     0.337      2.749      13.1095  22.7297         48
 4.33   0.0243     97.0989    451.1919 -14.65     585.2806     1.886           25     1.112      4.256     13.11098  21.1316         49
 7.09   0.1216     94.3153    387.6701  44.29     117.0979     0.568           25     0.338      2.148     13.10653  22.8786         50
 8.24   0.0877    101.5233    517.4830  44.00     162.3863     0.503           25     0.496      3.019     13.11098  22.5236         51
 4.85   0.0976    107.1691    861.1779 -44.69     145.9492     0.793           25     0.684      2.413     13.11692  22.6395         52
 6.49   0.0709    114.3650    414.1011  78.71     200.5863     0.993           25     0.745      3.757     13.10356  22.2942         53
 7.57   0.4291    109.7253   1513.3552  40.66      33.1791     0.559           25     0.340      2.180     13.11098  24.2478         54
 3.86   0.0827    116.2039    989.3252  17.90     172.4149     0.959           25     0.862      2.631     13.12434  22.4586         55
 3.92   0.1094    116.6458    152.3968 -48.96     130.2597     0.987           25     0.861      2.486     13.12434  22.7630         56
 4.90   0.0549    116.3229     65.0629   2.91     259.1875     1.238           25     0.962      3.704      13.1095  22.0160         57
 5.23   0.0603    125.3040    492.6458   3.72     235.9713     1.313           25     0.899      3.727     13.10356  22.1179         58
 3.50   0.0004    161.4527   1466.8275 -62.60     37281.94     1.887           25     1.855      3.292     13.12137  16.6213         59
 4.88   0.0522    130.2532    416.4069  19.77     273.1725     0.953           25     0.914      3.091     13.12731  21.9589         60
 5.93   0.0903    128.2914    884.0579   6.49     157.5606     0.731           25     0.675      3.128     13.10802  22.5564         61
 5.03   0.3122    127.2593   1476.9744   1.55     45.64358     0.661           25     0.438      2.040     13.12137  23.9016         62
 7.12   0.0557    142.3000    885.0659  72.53      255.437     1.010           25     0.747      5.104     13.11247  22.0318         63
 3.50   0.0017    169.2886    875.6515 -60.73     8455.821     1.717           25     1.674      3.207      13.1095  18.2321         64
 3.50   0.0835    150.5815   1278.7736  82.35     170.5845     0.961           25     0.925      2.469     13.11841  22.4701         65
 4.49   0.1161    154.5294     80.6534 -67.71     122.6806     0.937           25     0.808      2.603     13.11098  22.8281         66
 4.01   0.0184    164.1869   1444.2914  47.23     773.9684     1.315           25     1.220      3.155     13.11544  20.8282         67
 5.87   0.1685    155.0629   1578.6616 -89.90     84.53851     0.730           25     0.649      2.657     13.11395  23.2324         68
 3.50   0.0266    165.7468    102.6053 -27.35      536.923     1.257           25     1.163      2.728     13.12731  21.2252         69
 5.28   0.0760    165.0033    574.9867  75.43      187.394     1.228           25     0.718      3.262     13.11247  22.3681         70
 4.67   0.0536    168.4867   1367.4685  20.67     265.7289     1.009           25     0.988      2.797     13.10504  21.9889         71
 5.84   0.0744    167.9813    649.5107   1.35      191.483     1.038           25     0.782      3.536     13.11544  22.3447         72
 4.73   0.0341    179.2377    573.5081  32.97     417.5934     1.568           25     1.257      4.283     13.10802  21.4981         73
 5.49   0.0284    185.8672   1353.5756 -50.21     501.3164     1.474           25     1.273      4.947     13.11841  21.2997         74
 3.93   0.0151    191.7892   1349.0759 -17.92     942.0615     1.315           25     1.260      3.106     13.12434  20.6148         75
 3.73   0.0040    209.8528    826.1118  -7.48      3559.83     4.622           25     2.153      8.057     13.10653  19.1714         76
 4.16   0.0045    229.0615    560.6190 -23.24     3135.529     3.757           25     3.430      8.685     13.11841  19.3092         77
 3.50   0.0082    205.7428    547.4331 -50.08     1736.322     1.413           25     1.388      2.950     13.11989  19.9509         78
 6.65   0.0800    195.0215    447.7135 -85.09     178.1093     0.732           25     0.676      3.184     13.11544  22.4233         79
 3.50   0.0082    211.4102   1304.6077 -40.53     1742.687     1.411           25     1.380      2.991     13.11098  19.9470         80
 4.33   0.0260    209.9548    683.0822 -80.09      546.646     1.518           25     1.217      3.698     13.11098  21.2057         81
 6.95   0.1269    204.8301    182.1670 -44.93     112.3069     0.758           25     0.571      3.179     13.12137  22.9240         82
 3.78   0.1134    208.1468   1224.1273 -14.49     125.6018     0.861           25     0.844      2.335     13.11098  22.8025         83
 3.50   0.0001    258.9254    995.8104 -43.31     114525.4     2.092           25     2.025      3.382     13.12434  15.4027         84
 7.67   0.0640    204.5729    935.2369 -19.75     222.4585     0.733           25     0.455      3.698     13.11692  22.1819         85
 3.50   0.0071    223.2786   1224.6028  20.19     1993.077     1.411           25     1.403      3.005     13.11989  19.8012         86
 6.28   0.0409    216.9193    739.7366 -46.49     348.1313     1.323           25     1.013      5.079     13.10802  21.6956         87
 3.50   0.0207    221.6176    773.3508 -32.33     686.7098     1.262           25     1.233      2.795     13.11841  20.9581         88
 7.43   0.0807    216.1229    881.6307 -66.69     176.4752     1.120           25     0.572      4.582     13.11544  22.4333         89
 3.50   0.0002    264.9534     65.7731 -32.20     84207.41     2.028           25     1.996      3.310     13.12286  15.7366         90
 4.32   0.0104    243.0270    111.0771 -85.87     1363.715     2.181           25     1.625      5.062     13.11544  20.2132         91
 6.77   0.0368    229.2600    546.3682 -62.66     387.3678     1.147           25     0.927      5.448     13.11841  21.5797         92
 4.17   0.0042    254.5277    611.2526 -44.96     3401.623     2.599           25     2.118      5.674     13.11098  19.2208         93
 4.56   0.0244    238.4033    837.2197  -0.07     584.6382     1.538           25     1.343      4.295     13.11544  21.1328         94
 7.00   0.3652    232.2851   1551.6707  42.41      38.9797     0.554           25     0.344      2.082     13.10653  24.0729         95
 6.05   0.1049    238.8988   1477.2656 -62.39     135.7779     1.007           25     0.650      3.103     13.11395  22.7179         96
 5.07   0.0267    249.5192    105.7907 -39.60     533.4042     1.353           25     1.158      4.242     13.11544  21.2324         97
 6.74   0.0890    247.9741   1412.9532  34.10     160.1033     0.809           25     0.777      3.746     13.12286  22.5390         98
 6.52   0.1276    250.1559   1549.1664 -46.24     111.7254     0.825           25     0.674      3.112     13.12286  22.9296         99
 8.32   0.1250    248.6070    149.8001  18.07     113.9021     0.742           25     0.453      2.838     13.11098  22.9087        100
 3.50   0.0007    286.7198   1484.9985 -34.86     19896.32     1.803           25     1.773      3.277     13.11989  17.3031        101
 3.50   0.0032    281.0606   1520.9103  78.86     4382.093     1.578           25     1.503      3.126     13.11098  18.9458        102
 7.88   0.0582    264.4987    722.9905 -89.56     244.7164     0.852           25     0.694      4.522     13.11098  22.0783        103
 6.08   0.0727    264.5280    122.1684 -89.38     195.8597     0.938           25     0.736      3.315     13.11692  22.3201        104
 4.61   0.0326    269.9497   1272.2324   9.29     437.3594     1.380           25     1.179      3.819     13.11989  21.4479        105
 7.75   0.3210    270.3510   1248.7195  48.76     44.35104     0.560           25     0.340      2.374     13.11098  23.9327        106
 3.50   0.0010    302.1461    199.9575  -1.01     14611.84     1.754           25     1.748      3.194     13.11692  17.6382        107
 8.12   0.1212    278.4984    555.4962 -45.05     117.4179     0.503           25     0.497      3.020     13.10653  22.8757        108
 4.55   0.0176    292.5302   1474.2421 -21.60     811.0072     1.506           25     1.241      4.035     13.11692  20.7774        109
 5.27   0.0644    291.4895    246.7583 -31.60     221.1104     1.130           25     0.933      3.231     13.11247  22.1885        110
 3.50   0.0189    301.2911    561.8903  -3.92     752.3511     1.383           25     1.345      3.072     13.10356  20.8589        111
 5.62   0.0290    307.7112     83.4766  74.73     491.4698     1.692           25     1.285      5.450     13.10504  21.3213        112
 3.50   0.0015    321.1615    695.6137 -47.99     9694.128     1.682           25     1.667      3.156     13.12137  18.0837        113
 3.98   0.0179    320.8418    639.7523 -62.45     796.6274     2.244           25     1.508      4.747     13.12137  20.7969        114
 4.25   0.0077    326.5584    593.7395  -1.29     1842.039     1.915           25     1.868      4.755     13.11692  19.8868        115
 7.56   0.0584    310.0077    315.3219  87.28     243.9337     0.749           25     0.679      4.145     13.11989  22.0818        116
 5.25   0.0729    315.9547    225.1773  -9.26     195.5719     1.107           25     0.728      3.175     13.11989  22.3217        117
 3.71   0.0336    331.2021     91.6054 -20.61     423.5905     1.213           25     1.064      2.749     13.11395  21.4826        118
 4.22   0.0467    328.4932   1544.6573   0.89     304.9457     1.102           25     0.968      2.810     13.10802  21.8394        119
 3.62   0.0152    349.0294     52.9462 -35.30     940.4961     1.319           25     1.295      2.947     13.12137  20.6166        120
 3.50   0.0014    367.2354    759.4962 -26.09     9995.152     1.732           25     1.685      3.182     13.10504  18.0505        121
 5.45   0.0659    347.3217     40.6653 -50.68     215.9881     0.987           25     0.848      3.765     13.10653  22.2139        122
 3.50   0.0079    360.3835   1498.9019 -13.41     1800.458     1.548           25     1.385      3.119     13.11247  19.9115        123
 3.50   0.0003    394.2159    229.6349 -70.43     48948.96     1.952           25     1.907      3.264     13.12137  16.3256        124
 3.50   0.0303    359.7347   1032.5051  38.29     469.3087     1.217           25     1.170      2.714     13.11247  21.3714        125
 4.74   0.0208    374.2932    752.1290  51.98     684.3009     2.168           25     1.272      5.426      13.1095  20.9619        126
 4.80   0.0420    369.4625     69.8472 -56.93     339.1558     1.299           25     1.090      3.659     13.11247  21.7240        127
 3.74   0.0335    372.4083   1082.3356 -32.85     426.1349     1.433           25     1.350      3.632     13.12582  21.4761        128
 6.16   0.0588    368.3817    208.3981 -49.89     242.1791     1.080           25     0.933      4.528     13.11395  22.0897        129
 3.99   0.0872    374.3221     85.4926 -20.10     163.2316     0.963           25     0.937      2.533     13.10802  22.5180        130
 3.50   0.0021    396.2272   1459.7446 -45.85     6863.417     1.624           25     1.598      3.131     13.12137  18.4586        131
 4.45   0.0441    379.1256    123.9208  61.23     322.7713     1.113           25     1.110      3.095     13.11098  21.7778        132
 3.50   0.0018    397.1835    352.8708 -58.84     7926.792     1.677           25     1.629      3.140     13.12434  18.3023        133
 5.17   0.0535    381.4269     65.5967  24.25     266.3128     1.219           25     0.932      3.275     13.11544  21.9865        134
 3.50   0.0088    392.8812   1087.1532  12.39     1623.792     1.405           25     1.374      2.916     13.11098  20.0237        135
 5.14   0.0199    395.6750    625.1777 -87.51     716.8167     1.901           25     1.613      5.898     13.11989  20.9115        136
 7.24   0.0555    381.7726      9.7077   6.31       256.52     0.910           25     0.766      4.949     13.11247  22.0272        137
 4.10   0.0823    388.2085   1193.8507 -68.22     173.1021     0.938           25     0.836      2.472     13.12434  22.4542        138
