#   1 KRON_RADIUS            Kron apertures in units of A or B                         
#   2 MAGERR_APER            RMS error vector for fixed aperture mag.                   [mag]
#   3 Y_IMAGE                Object position along y                                    [pixel]
#   4 X_IMAGE                Object position along x                                    [pixel]
#   5 FLUX_APER              Flux vector within fixed circular aperture(s)              [count]
#   6 THRESHOLD              Detection threshold above background                       [count]
#   7 THETA_IMAGE            Position angle (CCW/x)                                     [deg]
#   8 A_IMAGE                Profile RMS along major axis                               [pixel]
#   9 B_IMAGE                Profile RMS along minor axis                               [pixel]
#  10 FLUX_RADIUS            Fraction-of-light radii                                    [pixel]
#  11 FLUXERR_APER           RMS error vector for aperture flux(es)                     [count]
#  12 MAG_APER               Fixed aperture magnitude vector                            [mag]
#  13 NUMBER                 Running object number                                     
 4.23   0.0000     53.2652     63.6543     80688.63      43.5214   3.17     5.181     4.630      3.533  0.006733687  15.7830          1
 3.95   0.0000     16.5149    985.0804     13462.27      43.5214 -88.61     4.203     1.941      2.983    0.0067314  17.7272          2
 4.06   0.0000     18.0504     91.3141     11995.76      43.5214   0.42     1.768     1.716      2.071  0.006732925  17.8524          3
 3.50   0.0000     14.6167   1445.7477        28245      43.5214 -47.82     1.890     1.819      2.101   0.00673826  16.9226          4
 8.12   0.0000     10.2946   1183.6542     621.0764      43.5214  42.42     0.565     0.339      2.157    0.0067314  21.0671          5
 7.36   0.0000      4.2259    145.0241     567.0228      43.5214  89.83     0.957     0.768      2.944  0.006034885  21.1660          6
 6.64   0.0000     17.2495    384.5071     1403.331      43.5214  19.99     0.993     0.952      2.096  0.006730637  20.1821          7
 5.14   0.0000     24.7971    367.2085     2566.178      43.5214  13.81     1.305     1.234      2.031  0.006733687  19.5268          8
 3.50   0.0000     59.7850   1078.4766       107492      43.5214  77.02     2.287     2.159      2.150  0.006740545  15.4716          9
 8.57   0.0000     23.7800    383.3999      1550.88      43.5214 -71.85     0.755     0.452      2.167  0.006735974  20.0736         10
 6.41   0.0000     33.9023   1110.1802     1223.046      43.5214  68.24     1.657     0.778      2.218  0.006732925  20.3314         11
 7.88   0.0000     33.3076    326.9492     996.3137      43.5214  -6.92     0.747     0.677      2.260  0.006732162  20.5540         12
 5.98   0.0000     37.8655   1521.1591     774.1097      43.5214  46.72     0.834     0.669      2.209  0.006735974  20.8280         13
 7.05   0.0000     38.8750   1170.6508     835.9016      43.5214 -19.52     0.923     0.691      2.083    0.0067314  20.7446         14
 5.87   0.0000     42.4605    915.4996     925.5895      43.5214 -77.10     0.913     0.907      2.002  0.006730637  20.6340         15
 3.50   0.0000     80.1536    537.6561     102765.4      43.5214 -59.56     2.145     2.122      2.049  0.006735212  15.5204         16
 9.02   0.0000     44.6655    440.6699     830.5243      43.5214 -45.19     0.576     0.334      2.046  0.006732162  20.7516         17
 4.26   0.0000     75.2162    128.0142     4918.406      43.5214  -5.75     1.516     1.469      2.185  0.006735974  18.8204         18
 6.64   0.0000     82.2787    421.5101     1087.975      43.5214 -15.66     0.994     0.986      2.328  0.006730637  20.4585         19
 3.50   0.0000    121.8120    789.2006     149785.2      43.5214 -62.81     2.230     2.179      2.081  0.006735974  15.1113         20
 6.02   0.0000     90.7295    376.9918     2123.751      43.5214   4.47     1.628     1.442      2.706  0.006739022  19.7322         21
 4.42   0.0000     96.6151     56.2576     7333.667      43.5214 -38.95     1.639     1.566      2.042  0.006736736  18.3867         22
 6.10   0.0000     98.0585    452.9797     1647.937      43.5214 -14.82     1.454     1.005      2.464   0.00673826  20.0076         23
 7.39   0.0000     91.4945    495.9650      638.337      43.5214  -1.40     0.788     0.500      2.086    0.0067314  21.0374         24
 3.50   0.0000    162.2989   1468.3301     89221.79      43.5214 -48.48     2.111     2.074      2.091  0.006732162  15.6738         25
 6.85   0.0000    131.2865    418.0175       545.02      43.5214   5.64     0.729     0.681      2.210  0.006735212  21.2090         26
 3.55   0.0000    170.2996    877.3505     23996.23      43.5214  -8.96     1.882     1.865      2.033  0.006726822  17.0996         27
 8.52   0.0000    151.4999   1280.4825     498.7332      43.5214 -47.88     0.501     0.498      1.880  0.006727585  21.3053         28
 5.51   0.0000    164.9741   1445.6677     2105.354      43.5214  17.35     1.303     1.186      2.128  0.006736736  19.7417         29
 4.82   0.0000    166.8505    104.4303     1618.916      43.5214 -46.35     1.196     1.124      1.968   0.00673826  20.0269         30
 6.42   0.0000    169.3397   1368.8977     774.0925      43.5214  68.06     0.910     0.689      2.152  0.006730637  20.8280         31
 7.68   0.0000    180.3316    574.9897     1023.371      43.5214  53.18     1.039     0.643      2.084  0.006739784  20.5249         32
 7.49   0.0000    186.6387   1354.8976     881.3406      43.5214  75.59     1.045     0.753      2.469  0.006729874  20.6871         33
 5.30   0.0000    192.6023   1350.5554     2707.137      43.5214 -19.15     1.368     1.305      2.032  0.006739784  19.4687         34
 4.77   0.0000    210.7202    827.6749     10154.75      43.5214  -5.78     3.810     2.091      2.869  0.006732925  18.0333         35
 4.14   0.0000    206.7225    549.0807     5274.586      43.5214   3.37     1.545     1.484      2.085  0.006733687  18.7445         36
 4.19   0.0000    212.1664   1306.1005     5216.294      43.5214 -64.54     1.516     1.487      2.098  0.006728348  18.7566         37
 5.52   0.0000    230.1494    562.2775     8389.909      43.5214 -37.31     3.231     3.004      4.283    0.0067314  18.2406         38
 5.76   0.0000    210.8939    684.8484     1336.357      43.5214 -66.39     1.218     1.115      2.166  0.006730637  20.2352         39
 3.50   0.0000    259.7588    997.4791       263314      43.5214 -48.81     2.331     2.263      2.063  0.006734449  14.4988         40
 3.92   0.0000    223.9121   1226.0618     6191.251      43.5214  25.89     1.523     1.479      2.102  0.006732162  18.5706         41
 4.86   0.0000    222.6267    774.9695     2161.303      43.5214  81.57     1.224     1.191      2.031  0.006736736  19.7132         42
 3.50   0.0000    265.9002     67.6173     192834.7      43.5214 -49.31     2.268     2.237      2.127  0.006732925  14.8370         43
 5.52   0.0000    243.9732    112.8913     3538.826      43.5214 -88.19     1.951     1.539      2.683  0.006733687  19.1779         44
 4.81   0.0000    255.4885    613.0098     10263.53      43.5214 -41.01     2.436     2.028      2.500  0.006735974  18.0218         45
 6.52   0.0000    239.3535    838.8231     1677.136      43.5214  -5.84     1.203     1.102      2.164  0.006737498  19.9886         46
 7.18   0.0000    250.5180    107.4840     1323.258      43.5214 -42.78     1.108     0.852      2.242    0.0067314  20.2459         47
 3.50   0.0000    287.5196   1486.4733     51121.85      43.5214 -43.97     2.033     1.992      2.103  0.006732162  16.2785         48
 3.66   0.0000    281.9236   1522.4003     12483.41      43.5214   3.77     1.701     1.668      2.017  0.006736736  17.8092         49
 6.46   0.0000    270.7727   1273.6278     877.6927      43.5214  16.49     1.000     0.849      2.002  0.006737498  20.6916         50
 3.50   0.0000    303.1506    201.7659     40523.17      43.5214 -78.11     1.968     1.942      2.105  0.006736736  16.5307         51
 6.27   0.0000    293.2967   1475.8354     1512.152      43.5214 -33.66     1.250     1.086      1.993  0.006729111  20.1010         52
 4.64   0.0000    302.2875    563.6751     2400.872      43.5214  31.81     1.325     1.283      2.073  0.006730637  19.5991         53
 3.50   0.0000    322.0853    697.3419     28167.51      43.5214   1.78     1.882     1.848      1.993  0.006732925  16.9256         54
 7.64   0.0000    308.7069     85.2985     990.7567      43.5214  45.78     0.969     0.767      2.208  0.006729874  20.5601         55
 6.05   0.0000    321.9905    641.4783     2210.036      43.5214 -64.00     1.799     1.232      2.877  0.006737498  19.6890         56
 5.16   0.0000    327.5369    595.4523     5445.947      43.5214 -52.10     1.728     1.694      2.389  0.006733687  18.7098         57
 6.07   0.0000    329.2517   1546.0168     925.2855      43.5214 -87.78     0.913     0.756      2.220   0.00673826  20.6343         58
 5.83   0.0000    332.2679     93.4347     1262.654      43.5214  20.40     0.992     0.948      1.988  0.006736736  20.2968         59
 4.78   0.0000    350.1319     54.7084     2661.487      43.5214  -8.51     1.366     1.298      2.024    0.0067314  19.4872         60
 3.50   0.0000    368.1670    761.1217     28508.89      43.5214 -26.12     1.940     1.871      2.064  0.006735212  16.9125         61
 4.02   0.0000    361.1491   1500.4037     5168.872      43.5214 -15.08     1.586     1.464      2.131  0.006740545  18.7665         62
 3.50   0.0000    395.2009    231.4691     117579.4      43.5214 -63.05     2.184     2.143      2.051  0.006739022  15.3742         63
 5.78   0.0000    360.5269   1034.0070     1396.975      43.5214  -1.40     1.111     0.957      2.129  0.006739022  20.1870         64
 6.91   0.0000    375.4792    754.0627      1450.35      43.5214  56.22     1.715     0.961      1.674    0.0067314  20.1463         65
 7.68   0.0000    370.3091     71.9499     818.1514      43.5214 -10.89     0.743     0.672      2.156  0.006733687  20.7679         66
 6.47   0.0000    373.4826   1083.8826     1024.512      43.5214 -17.84     1.100     0.990      2.074    0.0067314  20.5237         67
 6.41   0.0001    380.6161      1.4882     57.89966      43.5214 -89.79     1.601     0.500      3.001   0.00514693  23.6433         68
 3.50   0.0000    397.0519   1461.2017     19140.18      43.5214 -44.85     1.804     1.797      2.096  0.006740545  17.3451         69
 3.50   0.0000    398.1799    354.6261      23234.1      43.5214 -13.53     1.890     1.844      2.051  0.006735974  17.1347         70
 8.09   0.0000    375.6552     87.2937     635.5598      43.5214  47.61     0.564     0.339      1.945  0.006732162  21.0421         71
 6.71   0.0000    380.1594    125.8447      1024.02      43.5214  44.65     0.818     0.680      2.104  0.006737498  20.5242         72
 4.22   0.0000    393.8183   1088.7736     5086.122      43.5214 -35.06     1.516     1.449      1.973  0.006736736  18.7840         73
 8.89   0.0000    382.4900     67.5055     734.7621      43.5214 -44.69     0.503     0.497      2.111  0.006729111  20.8846         74
 8.07   0.0000    388.6902   1195.3347     487.1758      43.5214  43.77     0.567     0.338      2.333  0.006733687  21.3308         75
 6.14   0.0000    412.0432      1.7727     154.5251      43.5214  90.00     2.505     0.701      4.328  0.005254529  22.5775         76
 7.90   0.0000    396.8768    626.5975     2086.162      43.5214 -73.71     1.239     0.985      3.092  0.006736736  19.7516         77
 8.16   0.0000    403.6928    526.4366     1143.707      43.5214  81.17     1.023     0.476      2.159  0.006732162  20.4042         78
 7.54   0.0000    407.0518    282.4902     633.1733      43.5214 -88.59     0.787     0.500      1.975  0.006733687  21.0462         79
 3.50   0.0000    437.9478    252.1072     42717.12      43.5214 -87.21     2.006     1.974      2.118  0.006732162  16.4735         80
 3.50   0.0000    461.0704    807.6703     312498.9      43.5214 -68.51     2.341     2.304      2.063  0.006728348  14.3129         81
 5.83   0.0000    420.9021    159.0900     2430.837      43.5214  37.62     1.694     1.421      2.325  0.006729111  19.5856         82
 7.67   0.0000    419.5386   1580.4929     614.8603      43.5214  40.47     0.504     0.495      2.169  0.006732162  21.0781         83
 4.17   0.0000    432.9492   1422.0629     3818.162      43.5214   6.85     1.427     1.396      2.044  0.006733687  19.0954         84
 6.72   0.0000    426.5748   1179.2787     1382.635      43.5214  26.35     1.188     0.957      2.186  0.006735974  20.1982         85
 6.42   0.0000    426.8329    433.0970      97254.4      43.5214  -3.27     2.183     0.735      4.284  0.006730637  15.5802         86
 5.15   0.0000    434.2586    151.1154     1444.197      43.5214 -20.05     1.138     1.034      1.999  0.006732925  20.1509         87
 3.88   0.0000    450.3392     21.3603     15119.32      43.5214 -27.47     1.777     1.769      2.074  0.006736736  17.6012         88
 5.07   0.0000    467.7993    850.4810     11463.13      43.5214  22.59     7.403     2.054      5.003  0.006736736  17.9017         89
 9.05   0.0000    430.6650    719.3185     1355.642      43.5214  45.76     0.572     0.336      2.141  0.006730637  20.2196         90
 4.48   0.0000    440.0043    305.8401     1698.172      43.5214  22.45     1.160     1.136      1.928  0.006736736  19.9750         91
 5.42   0.0000    445.2589    122.3780     2427.737      43.5214 -23.52     1.401     1.309      2.236   0.00673826  19.5870         92
 3.80   0.0000    457.8408     34.5939     17248.67      43.5214 -30.83     1.779     1.767      2.006  0.006737498  17.4581         93
 8.05   0.0000    443.6886    655.3237     717.0665      43.5214  44.36     0.563     0.340      2.133  0.006729874  20.9111         94
 4.32   0.0000    463.6414    468.6490     5323.792      43.5214  70.99     1.619     1.558      2.111   0.00673826  18.7344         95
 6.24   0.0000    452.9206   1533.0249     857.2289      43.5214 -31.03     0.792     0.774      2.201  0.006735974  20.7173         96
 5.22   0.0000    460.9918   1096.1410     1895.634      43.5214  47.71     1.191     1.080      2.161  0.006740545  19.8556         97
 4.60   0.0000    471.3581    254.2742     4597.024      43.5214 -79.51     1.510     1.439      2.059  0.006734449  18.8938         98
 4.03   0.0000    472.1380    734.9207     6510.259      43.5214  75.27     1.566     1.511      2.085    0.0067314  18.5160         99
 7.71   0.0000    461.8358    724.7247     1010.178      43.5214 -20.12     0.949     0.683      2.271  0.006734449  20.5390        100
 3.70   0.0000    477.9271    923.0840     8918.647      43.5214 -28.67     1.679     1.612      2.031    0.0067314  18.1743        101
 4.34   0.0000    477.2791   1276.4363     3214.727      43.5214 -44.53     1.334     0.920      2.964  0.006734449  19.2821        102
 5.84   0.0000    488.9431    839.6031      1738.62      43.5214  87.10     2.059     0.959      2.707  0.006740545  19.9495        103
 4.14   0.0000    484.0388   1070.6680     3710.258      43.5214 -80.82     1.429     1.400      2.022  0.006735974  19.1265        104
 7.10   0.0000    475.9789   1168.4807     454.2285      43.5214  89.68     0.781     0.500      1.967  0.006736736  21.4068        105
 5.40   0.0000    496.2654     82.9187     6059.583      43.5214  66.13     2.311     2.046      3.092  0.006730637  18.5939        106
 6.87   0.0000    478.8629    682.8434     876.4062      43.5214 -46.10     0.819     0.679      1.970  0.006734449  20.6932        107
 5.12   0.0000    495.7248   1186.8407     5876.172      43.5214 -15.71     2.996     1.931      3.313  0.006734449  18.6273        108
 5.26   0.0000    504.0796    762.8668     3294.753      43.5214 -10.71     1.688     1.646      2.485  0.006730637  19.2554        109
 4.77   0.0000    502.0138    863.8067     2136.951      43.5214  64.62     1.201     1.192      2.105  0.006732162  19.7255        110
 4.57   0.0000    515.3623   1461.0657     6981.971      43.5214  23.93     4.115     1.649      2.938  0.006736736  18.4401        111
 6.08   0.0000    498.0054    366.2516     919.7504      43.5214   0.37     0.926     0.749      2.181  0.006740545  20.6408        112
 6.08   0.0000    509.9191    164.8152     2163.955      43.5214  -5.95     1.820     1.073      2.833  0.006737498  19.7119        113
 4.83   0.0000    513.8598   1179.1876     2277.215      43.5214  24.06     1.285     1.178      2.096  0.006737498  19.6565        114
 5.52   0.0000    519.1540    641.9484     1476.318      43.5214  22.36     1.200     1.120      2.196  0.006739022  20.1270        115
 6.45   0.0000    518.1915   1519.1722     733.9041      43.5214  45.74     0.761     0.567      2.278  0.006736736  20.8859        116
 4.09   0.0000    540.2067    999.9378     5238.465      43.5214  61.15     1.534     1.490      2.100  0.006739784  18.7520        117
 6.53   0.0000    536.3547    404.5305     1050.745      43.5214  38.93     1.195     0.786      1.995  0.006733687  20.4963        118
 3.90   0.0000    558.9035   1041.7982     7060.496      43.5214   6.20     1.633     1.563      2.036  0.006735212  18.4279        119
 4.74   0.0000    571.3472     45.9143     4888.153      43.5214  46.17     2.084     1.522      2.144  0.006732162  18.8271        120
 5.98   0.0000    555.8228    778.8107     659.1948      43.5214  44.57     0.756     0.567      2.055  0.006735212  21.0025        121
 3.50   0.0000    580.7163    144.9663     28083.91      43.5214  83.47     1.885     1.868      2.078  0.006735974  16.9289        122
 4.85   0.0000    571.3085   1447.7944     4378.015      43.5214  19.43     2.258     1.637      2.603  0.006732925  18.9468        123
 5.88   0.0000    565.0881    139.5546     1284.726      43.5214 -69.74     1.052     0.977      1.883  0.006732925  20.2780        124
 3.50   0.0000    582.1971    319.2584     27602.65      43.5214   7.31     1.887     1.830      2.023  0.006740545  16.9476        125
 4.29   0.0000    596.7602    782.6867     13638.27      43.5214 -62.08     3.302     3.182      3.523  0.006735212  17.7131        126
 5.97   0.0000    576.2225   1001.8235      1557.88      43.5214  40.80     1.216     1.076      2.317  0.006736736  20.0687        127
 4.64   0.0000    584.5398     76.0209      2042.03      43.5214  -0.84     1.205     1.138      2.131   0.00673826  19.7748        128
 4.19   0.0000   1001.5298   1555.4829     3493.137      43.5214  54.97     1.346     1.330      2.050  0.006730637  19.1920        129
 4.71   0.0000   1597.6036    654.7847     588.1623      43.5214   1.75     1.659     1.434      2.368  0.005791792  21.1263        130
 5.16   0.0000   1594.7568    374.1190     950.7336      43.5214  42.74     1.307     1.027      1.580  0.006508043  20.6049        131
 4.05   0.0000   1584.9181   1108.9316     4075.754      43.5214 -15.59     1.433     1.357      2.003  0.006732162  19.0245        132
 6.78   0.0000   1585.9497   1069.5099     736.5756      43.5214 -88.96     0.783     0.500      2.195  0.006732925  20.8820        133
 3.60   0.0000   1541.8564    135.1745     10618.31      43.5214  54.68     1.663     1.623      2.026  0.006737498  17.9849        134
 8.74   0.0000   1519.3268     85.3294     638.2701      43.5214 -44.88     0.573     0.336      1.664  0.006729874  21.0375        135
 4.79   0.0000   1514.6519    483.6263      1374.42      43.5214 -43.74     1.049     0.951      2.086   0.00673826  20.2047        136
 4.90   0.0000    912.4185   1001.2366     1425.469      43.5214  73.44     0.989     0.957      2.025  0.006737498  20.1651        137
 3.50   0.0000    900.4997    302.8331      19185.4      43.5214 -64.19     1.794     1.787      2.070  0.006729111  17.3426        138
