#   1 KRON_RADIUS            Kron apertures in units of A or B                         
#   2 MAGERR_APER            RMS error vector for fixed aperture mag.                   [mag]
#   3 Y_IMAGE                Object position along y                                    [pixel]
#   4 X_IMAGE                Object position along x                                    [pixel]
#   5 THETA_IMAGE            Position angle (CCW/x)                                     [deg]
#   6 FLUX_APER              Flux vector within fixed circular aperture(s)              [count]
#   7 A_IMAGE                Profile RMS along major axis                               [pixel]
#   8 THRESHOLD              Detection threshold above background                       [count]
#   9 B_IMAGE                Profile RMS along minor axis                               [pixel]
#  10 FLUX_RADIUS            Fraction-of-light radii                                    [pixel]
#  11 FLUXERR_APER           RMS error vector for aperture flux(es)                     [count]
#  12 MAG_APER               Fixed aperture magnitude vector                            [mag]
#  13 NUMBER                 Running object number                                     
 3.50   0.0000     52.4333     61.7887  -0.96     27974.71     6.716           15     6.060      8.396  0.002335948  16.9331          1
 3.50   0.0000     58.9519   1076.9445  78.69      39826.7     2.128           15     2.010      1.491  0.002335683  16.5496          2
 3.50   0.0000     15.7497    983.4656 -87.98     4452.999     4.577           15     2.016      5.216   0.00233489  18.9284          3
 3.50   0.0000     16.2981    382.9857 -59.76     358.5967     1.472           15     1.239      1.199   0.00233489  21.6635          4
 3.50   0.0000     17.0164     89.4730 -38.79     4216.073     1.671           15     1.631      0.989  0.002337269  18.9877          5
 3.50   0.0000     13.8114   1444.2374 -49.76     11056.44     1.739           15     1.710      1.275  0.002335948  17.9410          6
 4.39   0.0000     13.2809    839.4588 -64.27     145.1285     1.757           15     1.136      3.101  0.002334626  22.6456          7
 3.50   0.0000      9.1427   1182.2218 -58.33     164.5337     1.090           15     1.053      1.281   0.00233674  22.5094          8
 3.50   0.0000      5.7226   1467.8271  -3.92     63.66346     1.185           15     0.927      2.015  0.002221361  23.5403          9
 4.17   0.0000      3.6161    143.2476  67.68     142.9064     1.691           15     1.563      1.980  0.002031819  22.6624         10
 4.93   0.0001      3.6825    183.8440  -3.51     43.68996     1.227           15     0.993      2.819  0.002037583  23.9490         11
 5.78   0.0001      2.6513    843.5182  30.83     18.33051     0.918           15     0.533      1.889  0.001923514  24.8921         12
 6.15   0.0001      1.8051    302.4689   3.69     13.28606     0.944           15     0.716      3.600  0.001824704  25.2415         13
 3.88   0.0000     23.8485    365.4695  -5.27     803.2453     1.415           15     1.352      0.905   0.00233489  20.7879         14
 3.50   0.0000     23.0219    381.4544  24.10     237.9951     1.356           15     1.215      1.334   0.00233674  22.1086         15
 3.50   0.0000     17.3081   1213.4200  41.56     74.82289     0.958           15     0.859      0.982  0.002335155  23.3649         16
 3.50   0.0000     14.8494   1561.3939 -15.08     94.50169     1.001           15     0.739      1.304  0.002337269  23.1114         17
 5.35   0.0001     15.4901    192.9883  -3.36     50.49136     0.789           15     0.499      1.402  0.002335155  23.7920         18
 3.64   0.0000     33.0731   1108.5452  63.35     370.8696     2.076           15     1.318      2.825  0.002334362  21.6269         19
 5.13   0.0000     22.8372    696.7354  15.01     122.2194     0.929           15     0.844      1.287  0.002335948  22.8321         20
 4.91   0.0001     21.0478    212.1387 -47.04     40.17191     0.848           15     0.658      1.485   0.00233489  24.0402         21
 4.25   0.0000     24.2998   1451.6592 -46.73     53.40885     1.019           15     0.856      1.181  0.002333568  23.7310         22
 4.89   0.0000     32.4316    324.9747 -21.81     236.2509     1.573           15     1.287      2.012  0.002335155  22.1166         23
 7.04   0.0000     24.8343    529.8267  45.19     57.14704     0.760           15     0.568      1.420  0.002335948  23.6575         24
 6.77   0.0000     25.9974    701.2047  -0.88     63.10867     0.932           15     0.740      3.242   0.00233489  23.5498         25
 5.58   0.0000     33.7462     14.6674  68.44     104.7878     1.066           15     0.851      1.355  0.002334626  22.9992         26
 3.50   0.0000     37.0465   1519.9734 -74.82     226.0977     1.086           15     1.069      1.323  0.002337004  22.1643         27
 4.89   0.0000     43.2915    438.5799 -53.89     212.8021     1.732           15     1.306      2.652  0.002335155  22.2301         28
 3.50   0.0000     38.0197   1169.1301  12.56     198.0202     1.291           15     1.180      1.320  0.002337004  22.3082         29
 3.50   0.0000     79.0614    535.8589 -60.94     35687.62     2.005           15     1.968      1.486  0.002334626  16.6687         30
 4.00   0.0000     41.4925    913.7985 -64.52     236.5097     1.229           15     1.053      1.158   0.00233489  22.1154         31
 7.19   0.0001     33.9672   1066.4922  58.09     39.47935     0.804           15     0.311      1.838  0.002334626  24.0591         32
 3.50   0.0000     38.5997   1224.6497 -30.78     95.64603     1.230           15     0.776      1.155  0.002337269  23.0983         33
 4.36   0.0000     49.4274    263.3997 -85.92      151.051     1.572           15     1.144      1.948  0.002335155  22.6022         34
 4.11   0.0001     42.6318    226.6726  31.41     46.23569     1.087           15     0.718      1.353  0.002335683  23.8876         35
 6.89   0.0002     39.4751   1126.5167 -43.87     16.59248     0.504           15     0.495      1.548  0.002334097  25.0002         36
 4.13   0.0001     41.4938   1000.3320  -1.34     44.31031     1.055           15     0.499      1.139  0.002334097  23.9337         37
 3.50   0.0000     46.5427   1429.2081  87.60     63.67684     0.924           15     0.722      1.270  0.002337533  23.5400         38
 6.79   0.0001     45.7283    473.0384 -10.25     46.22233     0.733           15     0.681      2.204  0.002335683  23.8879         39
 3.50   0.0000     49.4531   1433.9266   9.19     216.1707     1.098           15     0.936      1.277  0.002334626  22.2130         40
 5.27   0.0000     46.8039    664.5811  -3.64     114.7765     0.954           15     0.725      2.629  0.002335419  22.9004         41
 6.31   0.0000     50.2168    119.8696  39.25     96.35545     0.808           15     0.669      2.030  0.002337004  23.0903         42
 8.31   0.0000     49.3352    879.6915  46.31     84.62798     0.567           15     0.338      2.041   0.00233489  23.2312         43
 4.26   0.0001     57.3694   1240.2938 -43.44     28.84853     0.873           15     0.506      1.239  0.002334626  24.3997         44
 3.50   0.0000     74.1010    126.4825 -37.88     1749.683     1.512           15     1.441      1.093  0.002333039  19.9426         45
 6.03   0.0000     58.9935    469.1689  53.54     60.62814     0.919           15     0.474      1.778  0.002335948  23.5933         46
 3.77   0.0000     65.0532   1146.3168  -0.33     126.3115     1.446           15     1.194      1.604  0.002334097  22.7964         47
 4.29   0.0001     66.7913   1414.2537 -52.11       35.443     1.146           15     0.850      1.661  0.002337004  24.1762         48
 3.50   0.0001     65.6870   1514.6782 -83.97     35.55605     0.878           15     0.625      1.296  0.002333833  24.1727         49
 7.38   0.0000     68.4347     17.8157  78.08     117.4115     1.055           15     0.886      4.036  0.002335948  22.8757         50
 3.50   0.0000     70.9532   1320.7623 -65.93     71.41626     1.011           15     0.819      1.176  0.002336212  23.4155         51
 8.63   0.0000     75.5962     80.4636 -42.88     196.6826     1.575           15     0.971      9.451  0.002337269  22.3156         52
 3.50   0.0000    120.9287    787.4847 -54.06     53124.23     2.061           15     2.026      1.516  0.002333833  16.2368         53
 3.62   0.0000     81.3385    419.7168 -81.41     316.4427     1.590           15     1.316      1.499  0.002334362  21.7993         54
 4.03   0.0000     89.6814    375.3958 -15.19     665.6685     2.400           15     2.068      3.585  0.002335948  20.9919         55
 7.76   0.0000     73.8174    732.3933 -72.14      62.9368     0.728           15     0.457      2.164   0.00233489  23.5527         56
 3.50   0.0000     95.5782     54.3880  32.31     2567.758     1.642           15     1.615      0.946  0.002335155  19.5261         57
 3.69   0.0000     78.5903   1031.9658  -4.43     56.10441     1.096           15     0.929      1.055  0.002336476  23.6775         58
 7.49   0.0001     73.6417   1255.6758 -46.33     47.21249     0.584           15     0.329      1.446  0.002335155  23.8649         59
 6.38   0.0000     82.9322    930.9178  37.76     116.2369     1.232           15     1.036      2.589  0.002334626  22.8866         60
 5.48   0.0000     87.5256    757.1620  67.42     180.8638     1.324           15     1.225      1.646  0.002335419  22.4066         61
 4.11   0.0000     86.9768   1358.2871 -79.18     89.71198     1.121           15     0.895      1.448  0.002335683  23.1679         62
 6.41   0.0000     86.7005    862.2626 -36.15     109.5268     1.409           15     0.998      2.078  0.002334626  22.9512         63
 5.20   0.0000     90.7034   1043.9060  53.71     61.29585     1.596           15     0.915      1.468  0.002333039  23.5814         64
 3.64   0.0000     90.6287    494.1021 -78.55     234.1405     1.207           15     1.126      0.929  0.002334097  22.1263         65
 6.33   0.0000     87.8049    810.6982 -51.85     62.16183     1.048           15     0.682      2.607  0.002335155  23.5662         66
 6.24   0.0001     85.0333   1559.0710  45.28     49.95813     0.911           15     0.526      1.781  0.002335683  23.8035         67
 7.02   0.0000     85.7787    923.1913 -46.10     69.82076     0.761           15     0.562      2.030  0.002335419  23.4400         68
 7.71   0.0001     84.3400    843.6768  45.74     46.53084     0.576           15     0.334      1.960  0.002334626  23.8806         69
 3.96   0.0000     97.1728    451.1170 -15.24      469.882     2.162           15     1.290      2.471  0.002335419  21.3700         70
 8.27   0.0000     86.6779    735.3153  45.35     100.9778     0.565           15     0.340      2.152  0.002334097  23.0394         71
 4.14   0.0000     94.2043    387.5450   0.77     111.6973     0.927           15     0.726      1.302  0.002337533  22.9299         72
 6.18   0.0000     95.9942    559.7447 -89.68     65.15583     0.677           15     0.436      1.442  0.002337797  23.5151         73
 7.67   0.0000     93.6628    870.6546 -44.68     54.29582     0.584           15     0.329      1.524   0.00233489  23.7131         74
 6.01   0.0000    101.7270    517.3474  34.34     91.21506     1.115           15     0.881      1.950  0.002334362  23.1498         75
 4.76   0.0000    107.3404    861.3600  41.76     93.78168     0.979           15     0.860      0.961  0.002335948  23.1197         76
 6.65   0.0000    106.3168    180.0375  -3.56     64.91367     0.737           15     0.660      1.432  0.002335419  23.5192         77
 4.80   0.0000    114.3042    414.1661 -68.16     134.9355     1.228           15     1.015      1.267  0.002334097  22.7247         78
 5.78   0.0000    106.9803   1420.9817 -40.64     55.20346     0.798           15     0.763      1.475  0.002335683  23.6951         79
 3.50   0.0001    109.9786   1513.2715   1.53     40.00789     0.899           15     0.736      1.040   0.00233674  24.0446         80
 3.50   0.0000    116.1239    989.4625 -58.20     80.48284     1.140           15     1.020      1.484  0.002334362  23.2857         81
 4.26   0.0000    116.2589     65.1139  13.51     178.9827     1.618           15     1.054      1.338  0.002334626  22.4180         82
 3.50   0.0000    116.7223    152.4540 -86.31     133.2595     1.125           15     0.972      1.003  0.002334362  22.7383         83
 4.38   0.0000    117.6551    911.8856 -66.68     78.97981     0.936           15     0.682      1.971  0.002334626  23.3062         84
 3.90   0.0000    125.2983    492.6189  -0.31     142.2798     1.667           15     1.221      2.123  0.002334626  22.6671         85
 3.50   0.0000    161.4539   1466.8250 -56.59     32927.48     1.946           15     1.907      1.478  0.002337004  16.7561         86
 7.45   0.0001    118.4850   1400.5153 -45.05     24.07018     0.503           15     0.497      1.565  0.002333833  24.5963         87
 4.14   0.0000    128.2079    884.2950  61.77     110.2857     1.036           15     0.870      1.375  0.002335155  22.9437         88
 4.48   0.0000    130.2061    416.2738  57.90     151.3877     1.101           15     1.058      1.046   0.00233674  22.5998         89
 3.50   0.0000    127.2846   1476.9159  64.41      63.8269     0.883           15     0.674      1.132  0.002333568  23.5375         90
 7.54   0.0001    122.6953    867.3505  42.88     24.06139     0.572           15     0.336      2.145  0.002333039  24.5967         91
 5.82   0.0000    141.2148    884.3030  53.18     141.0214     2.257           15     1.011      4.047  0.002335155  22.6768         92
 8.30   0.0001    129.4938    461.4677  78.90     47.24627     0.500           15     0.499      1.920  0.002334362  23.8641         93
 8.04   0.0001    134.2146     97.6234 -71.27     42.14458     0.773           15     0.440      1.419  0.002335419  23.9881         94
 7.04   0.0001    134.3000   1274.6626  43.09     28.12491     0.564           15     0.340      1.557  0.002334362  24.4273         95
 5.36 6453.7422    138.0683   1599.5823 -87.54    2.988e-07     0.784           15     0.493      3.461  0.001775671  44.3615         96
 3.50   0.0000    169.2866    875.6428 -67.51     9927.313     1.819           15     1.776      1.142  0.002335155  18.0579         97
 3.50   0.0000    150.7627   1278.9023  88.63     198.0506     1.165           15     1.082      1.353  0.002333568  22.3081         98
 3.76   0.0000    164.2096   1444.3286  54.24     682.5138     1.483           15     1.350      1.268  0.002337004  20.9647         99
 3.50   0.0000    154.5431     80.6304 -48.07     139.5305     1.064           15     0.916      1.079  0.002336476  22.6883        100
 4.12   0.0000    155.2883   1578.4978  43.34     73.90525     0.954           15     0.835      1.121  0.002333039  23.3783        101
 4.68   0.0000    164.9880    574.8641  77.30     120.7314     1.400           15     1.056      1.597  0.002337004  22.8454        102
 5.62   0.0001    154.6386    822.7695 -65.86     35.63378     0.715           15     0.649      1.504  0.002336212  24.1703        103
 3.50   0.0000    165.7105    102.5929 -26.48     586.6597     1.318           15     1.214      1.011  0.002335155  21.1290        104
 6.06   0.0000    159.1145    491.3987   9.59     70.31934     1.138           15     0.669      2.517  0.002335419  23.4323        105
 3.50   0.0000    258.9319    995.8038 -40.65      86268.3     2.204           15     2.098      1.567  0.002337004  15.7104        106
 4.12   0.0000    168.4684   1367.4351  -7.48     173.4842     1.270           15     1.126      1.253  0.002335948  22.4518        107
 4.57   0.0000    167.9214    649.5799  10.28     128.6982     1.348           15     1.112      1.260  0.002335948  22.7761        108
 4.19   0.0000    179.2146    573.4201  27.59     360.0703     1.835           15     1.464      2.096  0.002335155  21.6590        109
 7.19   0.0000    168.5136    168.5127  44.91     63.17926     0.504           15     0.496      1.727  0.002333833  23.5486        110
 6.62   0.0001    172.7473     30.3737 -74.04     41.96127     0.733           15     0.457      1.689  0.002336476  23.9929        111
 4.98   0.0000    185.8884   1353.4351 -50.81     288.9058     1.540           15     1.480      1.420  0.002335155  21.8981        112
 3.73   0.0000    191.7788   1349.0508 -23.52     910.6072     1.454           15     1.364      1.266  0.002336212  20.6517        113
 6.98   0.0000    182.3312     58.4806 -53.76     88.22539     0.998           15     0.698      2.134  0.002334626  23.1860        114
 3.51   0.0000    209.8881    826.0671  -8.36     3043.324     5.084           15     2.331      6.550  0.002334362  19.3416        115
 6.37   0.0000    186.4666    834.7832 -22.90     61.74221     1.173           15     0.797      2.657  0.002336476  23.5735        116
 7.49   0.0000    183.4922    493.5124  45.64     51.61012     0.502           15     0.498      1.551  0.002333568  23.7682        117
 3.76   0.0000    229.0385    560.6318 -21.14     2785.124     4.057           15     3.727      7.087  0.002336476  19.4379        118
 3.50   0.0000    205.7457    547.4451  43.16      1810.05     1.504           15     1.486      0.943  0.002335419  19.9058        119
 3.50   0.0000    264.9558     65.7548 -47.24     65206.04     2.166           15     2.089      1.539  0.002336476  16.0143        120
 5.84   0.0000    194.7908    447.8324 -36.15     120.9844     1.083           15     0.944      1.297  0.002335683  22.8432        121
 3.50   0.0000    211.4091   1304.6337 -26.38     1704.765     1.499           15     1.466      1.083  0.002335948  19.9708        122
 3.78   0.0000    209.9437    683.1042 -79.21     426.9042     1.701           15     1.387      1.529  0.002333833  21.4742        123
 6.61   0.0000    204.5181    935.3229 -12.18     89.47326     1.135           15     0.833      1.647  0.002334626  23.1708        124
 4.17   0.0000    204.7065    182.1932 -25.93     97.62211     1.089           15     0.881      1.567  0.002335155  23.0761        125
 6.01   0.0001    202.4839     89.5115 -44.61     22.48449     0.504           15     0.495      1.137  0.002334362  24.6703        126
 5.27   0.0000    205.1466    940.4789   2.41     111.1056     0.958           15     0.726      1.019  0.002334362  22.9357        127
 3.50   0.0000    223.2673   1224.6125  77.27     2077.342     1.485           15     1.454      1.058  0.002337004  19.7562        128
 3.50   0.0000    208.2518   1224.0577   1.73     133.9533     1.119           15     0.938      1.150  0.002335419  22.7326        129
 5.84   0.0000    216.7469    881.1780 -58.26     91.00407     1.993           15     0.919      3.143   0.00233674  23.1523        130
 5.06   0.0000    216.7891    739.7996 -42.28     193.7451     1.740           15     1.272      2.865  0.002335419  22.3319        131
 3.50   0.0000    221.6769    773.3261 -19.92     667.8486     1.347           15     1.266      1.039  0.002334626  20.9883        132
 6.40   0.0000    214.2046    791.6280 -30.95      74.0823     1.058           15     0.805      1.742  0.002335419  23.3757        133
 3.80   0.0000    243.0105    111.1027 -85.14     1113.303     2.456           15     1.769      2.306  0.002334626  20.4335        134
 6.03   0.0000    229.3316    546.3625 -56.52      136.931     1.571           15     1.150      2.649  0.002335683  22.7087        135
 3.87   0.0000    254.5541    611.1970 -41.09     2890.746     2.901           15     2.369      2.341  0.002337004  19.3975        136
 7.02   0.0000    220.1687    682.8415 -44.32     52.25064     0.763           15     0.566      1.920   0.00233674  23.7548        137
 7.49   0.0001    220.5158   1401.4570  63.28     47.77586     0.500           15     0.498      1.804  0.002334362  23.8520        138
