#   1 KRON_RADIUS            Kron apertures in units of A or B                         
#   2 MAGERR_APER            RMS error vector for fixed aperture mag.                   [mag]
#   3 Y_IMAGE                Object position along y                                    [pixel]
#   4 X_IMAGE                Object position along x                                    [pixel]
#   5 FLUX_APER              Flux vector within fixed circular aperture(s)              [count]
#   6 THRESHOLD              Detection threshold above background                       [count]
#   7 THETA_IMAGE            Position angle (CCW/x)                                     [deg]
#   8 A_IMAGE                Profile RMS along major axis                               [pixel]
#   9 B_IMAGE                Profile RMS along minor axis                               [pixel]
#  10 FLUX_RADIUS            Fraction-of-light radii                                    [pixel]
#  11 FLUXERR_APER           RMS error vector for aperture flux(es)                     [count]
#  12 MAG_APER               Fixed aperture magnitude vector                            [mag]
#  13 NUMBER                 Running object number                                     
 4.23   0.0000     53.2652     63.6543     95544.63      43.5214   3.17     5.181     4.630      3.405   0.02344684  15.5995          1
 3.95   0.0000     16.5149    985.0804      15079.6      43.5214 -88.61     4.203     1.941      2.948   0.02343887  17.6040          2
 4.06   0.0000     18.0504     91.3141     12655.41      43.5214   0.42     1.768     1.716      1.991   0.02344418  17.7943          3
 3.50   0.0000     14.6167   1445.7477      28847.2      43.5214 -47.82     1.890     1.819      2.075   0.02346276  16.8997          4
 8.12   0.0000     10.2946   1183.6542     556.5729      43.5214  42.42     0.565     0.339      2.155   0.02343887  21.1862          5
 7.36   0.0000      4.2259    145.0241     699.4928      43.5214  89.83     0.957     0.768      2.662   0.02101359  20.9380          6
 6.64   0.0000     17.2495    384.5071     1292.301      43.5214  19.99     0.993     0.952      2.006   0.02343621  20.2716          7
 5.14   0.0000     24.7971    367.2085     2672.483      43.5214  13.81     1.305     1.234      2.021   0.02344684  19.4827          8
 3.50   0.0000     59.7850   1078.4766     114060.1      43.5214  77.02     2.287     2.159      2.151   0.02347072  15.4072          9
 8.57   0.0000     23.7800    383.3999     1424.224      43.5214 -71.85     0.755     0.452      2.145    0.0234548  20.1661         10
 6.41   0.0000     33.9023   1110.1802     1369.845      43.5214  68.24     1.657     0.778      2.245   0.02344418  20.2083         11
 7.88   0.0000     33.3076    326.9492     974.3378      43.5214  -6.92     0.747     0.677      2.252   0.02344153  20.5782         12
 5.98   0.0000     37.8655   1521.1591     884.4701      43.5214  46.72     0.834     0.669      2.162    0.0234548  20.6833         13
 7.05   0.0000     38.8750   1170.6508     866.6627      43.5214 -19.52     0.923     0.691      2.100   0.02343887  20.7054         14
 5.87   0.0000     42.4605    915.4996      1153.57      43.5214 -77.10     0.913     0.907      1.988   0.02343621  20.3949         15
 3.50   0.0000     80.1536    537.6561     105450.7      43.5214 -59.56     2.145     2.122      2.036   0.02345215  15.4924         16
 9.02   0.0000     44.6655    440.6699     1055.866      43.5214 -45.19     0.576     0.334      1.833   0.02344153  20.4910         17
 4.26   0.0000     75.2162    128.0142     5338.544      43.5214  -5.75     1.516     1.469      2.143    0.0234548  18.7314         18
 6.64   0.0000     82.2787    421.5101     1170.393      43.5214 -15.66     0.994     0.986      2.215   0.02343621  20.3792         19
 3.50   0.0000    121.8120    789.2006     163220.3      43.5214 -62.81     2.230     2.179      2.064    0.0234548  15.0181         20
 6.02   0.0000     90.7295    376.9918      2927.49      43.5214   4.47     1.628     1.442      2.613   0.02346541  19.3838         21
 4.42   0.0000     96.6151     56.2576     7888.933      43.5214 -38.95     1.639     1.566      2.004   0.02345745  18.3075         22
 6.10   0.0000     98.0585    452.9797     1864.471      43.5214 -14.82     1.454     1.005      2.147   0.02346276  19.8736         23
 7.39   0.0000     91.4945    495.9650     939.0402      43.5214  -1.40     0.788     0.500      2.139   0.02343887  20.6183         24
 3.50   0.0000    162.2989   1468.3301     86884.21      43.5214 -48.48     2.111     2.074      2.074   0.02344153  15.7026         25
 6.85   0.0000    131.2865    418.0175     821.1977      43.5214   5.64     0.729     0.681      2.207   0.02345215  20.7639         26
 3.55   0.0000    170.2996    877.3505     23485.99      43.5214  -8.96     1.882     1.865      2.029   0.02342293  17.1230         27
 8.52   0.0000    151.4999   1280.4825     608.7805      43.5214 -47.88     0.501     0.498      1.911   0.02342559  21.0888         28
 5.51   0.0000    164.9741   1445.6677     2256.578      43.5214  17.35     1.303     1.186      2.101   0.02345745  19.6664         29
 4.82   0.0000    166.8505    104.4303     1724.487      43.5214 -46.35     1.196     1.124      1.957   0.02346276  19.9583         30
 6.42   0.0000    169.3397   1368.8977     876.0537      43.5214  68.06     0.910     0.689      2.130   0.02343621  20.6937         31
 7.68   0.0000    180.3316    574.9897     1133.626      43.5214  53.18     1.039     0.643      2.135   0.02346807  20.4138         32
 7.49   0.0000    186.6387   1354.8976     1221.827      43.5214  75.59     1.045     0.753      2.360   0.02343356  20.3325         33
 5.30   0.0000    192.6023   1350.5554     2884.971      43.5214 -19.15     1.368     1.305      2.037   0.02346807  19.3996         34
 4.77   0.0000    210.7202    827.6749     11232.52      43.5214  -5.78     3.810     2.091      2.920   0.02344418  17.9238         35
 4.14   0.0000    206.7225    549.0807      5494.84      43.5214   3.37     1.545     1.484      2.072   0.02344684  18.7001         36
 4.19   0.0000    212.1664   1306.1005     5538.479      43.5214 -64.54     1.516     1.487      2.105   0.02342825  18.6915         37
 5.52   0.0000    230.1494    562.2775     10344.13      43.5214 -37.31     3.231     3.004      4.238   0.02343887  18.0133         38
 5.76   0.0000    210.8939    684.8484     1679.829      43.5214 -66.39     1.218     1.115      2.166   0.02343621  19.9868         39
 3.50   0.0000    259.7588    997.4791       280483      43.5214 -48.81     2.331     2.263      2.080   0.02344949  14.4302         40
 3.92   0.0000    223.9121   1226.0618     6456.729      43.5214  25.89     1.523     1.479      2.082   0.02344153  18.5250         41
 4.86   0.0000    222.6267    774.9695     2309.539      43.5214  81.57     1.224     1.191      2.025   0.02345745  19.6412         42
 3.50   0.0000    265.9002     67.6173     207182.2      43.5214 -49.31     2.268     2.237      2.040   0.02344418  14.7591         43
 5.52   0.0000    243.9732    112.8913     3892.367      43.5214 -88.19     1.951     1.539      2.630   0.02344684  19.0745         44
 4.81   0.0000    255.4885    613.0098     10464.37      43.5214 -41.01     2.436     2.028      2.401    0.0234548  18.0007         45
 6.52   0.0000    239.3535    838.8231     1747.774      43.5214  -5.84     1.203     1.102      2.217   0.02346011  19.9438         46
 7.18   0.0000    250.5180    107.4840     1399.023      43.5214 -42.78     1.108     0.852      2.140   0.02343887  20.1854         47
 3.50   0.0000    287.5196   1486.4733     50517.96      43.5214 -43.97     2.033     1.992      2.090   0.02344153  16.2914         48
 3.66   0.0000    281.9236   1522.4003     13800.06      43.5214   3.77     1.701     1.668      1.994   0.02345745  17.7003         49
 6.46   0.0000    270.7727   1273.6278     1166.595      43.5214  16.49     1.000     0.849      1.948   0.02346011  20.3827         50
 3.50   0.0000    303.1506    201.7659     38622.66      43.5214 -78.11     1.968     1.942      2.076   0.02345745  16.5829         51
 6.27   0.0000    293.2967   1475.8354     1509.954      43.5214 -33.66     1.250     1.086      1.984    0.0234309  20.1026         52
 4.64   0.0000    302.2875    563.6751     2301.782      43.5214  31.81     1.325     1.283      2.089   0.02343621  19.6448         53
 3.50   0.0000    322.0853    697.3419     27599.36      43.5214   1.78     1.882     1.848      1.977   0.02344418  16.9478         54
 7.64   0.0000    308.7069     85.2985     1127.844      43.5214  45.78     0.969     0.767      2.253   0.02343356  20.4194         55
 6.05   0.0000    321.9905    641.4783     2789.948      43.5214 -64.00     1.799     1.232      2.793   0.02346011  19.4360         56
 5.16   0.0000    327.5369    595.4523     5446.037      43.5214 -52.10     1.728     1.694      2.199   0.02344684  18.7098         57
 6.07   0.0000    329.2517   1546.0168     1063.345      43.5214 -87.78     0.913     0.756      2.197   0.02346276  20.4833         58
 5.83   0.0000    332.2679     93.4347     1539.664      43.5214  20.40     0.992     0.948      1.971   0.02345745  20.0814         59
 4.78   0.0000    350.1319     54.7084     2989.788      43.5214  -8.51     1.366     1.298      1.978   0.02343887  19.3609         60
 3.50   0.0000    368.1670    761.1217     26541.88      43.5214 -26.12     1.940     1.871      2.046   0.02345215  16.9902         61
 4.02   0.0000    361.1491   1500.4037     5658.242      43.5214 -15.08     1.586     1.464      2.106   0.02347072  18.6683         62
 3.50   0.0000    395.2009    231.4691     115513.4      43.5214 -63.05     2.184     2.143      2.044   0.02346541  15.3934         63
 5.78   0.0000    360.5269   1034.0070     1675.469      43.5214  -1.40     1.111     0.957      2.124   0.02346541  19.9897         64
 6.91   0.0000    375.4792    754.0627     1617.475      43.5214  56.22     1.715     0.961      1.992   0.02343887  20.0279         65
 7.68   0.0000    370.3091     71.9499     1128.504      43.5214 -10.89     0.743     0.672      2.118   0.02344684  20.4187         66
 6.47   0.0000    373.4826   1083.8826     1313.003      43.5214 -17.84     1.100     0.990      2.289   0.02343887  20.2543         67
 6.41   0.0002    380.6161      1.4882     82.40285      43.5214 -89.79     1.601     0.500      2.956   0.01792172  23.2601         68
 3.50   0.0000    397.0519   1461.2017     20195.63      43.5214 -44.85     1.804     1.797      2.074   0.02347072  17.2869         69
 3.50   0.0000    398.1799    354.6261     22060.45      43.5214 -13.53     1.890     1.844      2.007    0.0234548  17.1910         70
 8.09   0.0000    375.6552     87.2937     843.3529      43.5214  47.61     0.564     0.339      1.945   0.02344153  20.7350         71
 6.71   0.0000    380.1594    125.8447     1002.878      43.5214  44.65     0.818     0.680      1.925   0.02346011  20.5469         72
 4.22   0.0000    393.8183   1088.7736     5060.144      43.5214 -35.06     1.516     1.449      1.920   0.02345745  18.7896         73
 8.89   0.0000    382.4900     67.5055     724.3913      43.5214 -44.69     0.503     0.497      1.830    0.0234309  20.9001         74
 8.07   0.0001    388.6902   1195.3347     503.4594      43.5214  43.77     0.567     0.338      2.276   0.02344684  21.2951         75
 6.14   0.0001    412.0432      1.7727     194.6521      43.5214  90.00     2.505     0.701      4.380   0.01829638  22.3269         76
 7.90   0.0000    396.8768    626.5975     2015.425      43.5214 -73.71     1.239     0.985      2.763   0.02345745  19.7891         77
 8.16   0.0000    403.6928    526.4366     1111.942      43.5214  81.17     1.023     0.476      2.249   0.02344153  20.4348         78
 7.54   0.0000    407.0518    282.4902     715.5438      43.5214 -88.59     0.787     0.500      2.018   0.02344684  20.9134         79
 3.50   0.0000    437.9478    252.1072     42000.61      43.5214 -87.21     2.006     1.974      2.103   0.02344153  16.4919         80
 3.50   0.0000    461.0704    807.6703     279254.4      43.5214 -68.51     2.341     2.304      2.041   0.02342825  14.4350         81
 5.83   0.0000    420.9021    159.0900     2683.928      43.5214  37.62     1.694     1.421      2.108    0.0234309  19.4781         82
 7.67   0.0000    419.5386   1580.4929     744.0464      43.5214  40.47     0.504     0.495      2.097   0.02344153  20.8710         83
 4.17   0.0000    432.9492   1422.0629     3936.904      43.5214   6.85     1.427     1.396      2.036   0.02344684  19.0621         84
 6.72   0.0000    426.5748   1179.2787     1373.882      43.5214  26.35     1.188     0.957      2.055    0.0234548  20.2051         85
 6.42   0.0000    426.8329    433.0970     104375.9      43.5214  -3.27     2.183     0.735      4.264   0.02343621  15.5035         86
 5.15   0.0000    434.2586    151.1154      1450.72      43.5214 -20.05     1.138     1.034      1.983   0.02344418  20.1460         87
 3.88   0.0000    450.3392     21.3603     15489.62      43.5214 -27.47     1.777     1.769      2.014   0.02345745  17.5749         88
 5.07   0.0000    467.7993    850.4810     13347.96      43.5214  22.59     7.403     2.054      4.788   0.02345745  17.7365         89
 9.05   0.0000    430.6650    719.3185     1617.983      43.5214  45.76     0.572     0.336      1.842   0.02343621  20.0276         90
 4.48   0.0000    440.0043    305.8401     1805.713      43.5214  22.45     1.160     1.136      1.906   0.02345745  19.9084         91
 5.42   0.0000    445.2589    122.3780     2686.807      43.5214 -23.52     1.401     1.309      2.164   0.02346276  19.4769         92
 3.80   0.0000    457.8408     34.5939     17895.59      43.5214 -30.83     1.779     1.767      1.964   0.02346011  17.4181         93
 8.05   0.0000    443.6886    655.3237     1069.964      43.5214  44.36     0.563     0.340      2.059   0.02343356  20.4766         94
 4.32   0.0000    463.6414    468.6490     5684.805      43.5214  70.99     1.619     1.558      2.082   0.02346276  18.6632         95
 6.24   0.0000    452.9206   1533.0249     923.8868      43.5214 -31.03     0.792     0.774      2.169    0.0234548  20.6360         96
 5.22   0.0000    460.9918   1096.1410     1973.723      43.5214  47.71     1.191     1.080      2.147   0.02347072  19.8118         97
 4.60   0.0000    471.3581    254.2742     4792.837      43.5214 -79.51     1.510     1.439      2.036   0.02344949  18.8485         98
 4.03   0.0000    472.1380    734.9207     7112.984      43.5214  75.27     1.566     1.511      2.069   0.02343887  18.4199         99
 7.71   0.0000    461.8358    724.7247     1054.389      43.5214 -20.12     0.949     0.683      2.242   0.02344949  20.4925        100
 3.70   0.0000    477.9271    923.0840     9397.954      43.5214 -28.67     1.679     1.612      2.020   0.02343887  18.1174        101
 4.34   0.0000    477.2791   1276.4363     3448.731      43.5214 -44.53     1.334     0.920      2.973   0.02344949  19.2059        102
 5.84   0.0000    488.9431    839.6031      1856.19      43.5214  87.10     2.059     0.959      2.653   0.02347072  19.8784        103
 4.14   0.0000    484.0388   1070.6680     4349.582      43.5214 -80.82     1.429     1.400      2.009    0.0234548  18.9539        104
 7.10   0.0000    475.9789   1168.4807     720.0919      43.5214  89.68     0.781     0.500      1.951   0.02345745  20.9065        105
 5.40   0.0000    496.2654     82.9187     6651.364      43.5214  66.13     2.311     2.046      2.995   0.02343621  18.4927        106
 6.87   0.0000    478.8629    682.8434     1159.862      43.5214 -46.10     0.819     0.679      1.954   0.02344949  20.3890        107
 5.12   0.0000    495.7248   1186.8407     6517.741      43.5214 -15.71     2.996     1.931      3.257   0.02344949  18.5148        108
 5.26   0.0000    504.0796    762.8668     3198.637      43.5214 -10.71     1.688     1.646      2.446   0.02343621  19.2876        109
 4.77   0.0000    502.0138    863.8067      2439.44      43.5214  64.62     1.201     1.192      2.114   0.02344153  19.5818        110
 4.57   0.0000    515.3623   1461.0657     7810.533      43.5214  23.93     4.115     1.649      3.027   0.02345745  18.3183        111
 6.08   0.0000    498.0054    366.2516     998.6984      43.5214   0.37     0.926     0.749      2.176   0.02347072  20.5514        112
 6.08   0.0000    509.9191    164.8152     2231.177      43.5214  -5.95     1.820     1.073      2.724   0.02346011  19.6787        113
 4.83   0.0000    513.8598   1179.1876     2339.743      43.5214  24.06     1.285     1.178      2.067   0.02346011  19.6271        114
 5.52   0.0000    519.1540    641.9484     1617.396      43.5214  22.36     1.200     1.120      2.124   0.02346541  20.0280        115
 6.45   0.0000    518.1915   1519.1722     871.9363      43.5214  45.74     0.761     0.567      2.202   0.02345745  20.6988        116
 4.09   0.0000    540.2067    999.9378     5558.373      43.5214  61.15     1.534     1.490      2.093   0.02346807  18.6876        117
 6.53   0.0000    536.3547    404.5305     1253.222      43.5214  38.93     1.195     0.786      1.943   0.02344684  20.3049        118
 3.90   0.0000    558.9035   1041.7982     7321.601      43.5214   6.20     1.633     1.563      1.996   0.02345215  18.3885        119
 4.74   0.0000    571.3472     45.9143     5272.434      43.5214  46.17     2.084     1.522      2.181   0.02344153  18.7450        120
 5.98   0.0000    555.8228    778.8107     719.0101      43.5214  44.57     0.756     0.567      2.103   0.02345215  20.9082        121
 3.50   0.0000    580.7163    144.9663     27803.47      43.5214  83.47     1.885     1.868      2.059    0.0234548  16.9398        122
 4.85   0.0000    571.3085   1447.7944     4595.282      43.5214  19.43     2.258     1.637      2.727   0.02344418  18.8942        123
 5.88   0.0000    565.0881    139.5546         1318      43.5214 -69.74     1.052     0.977      1.908   0.02344418  20.2502        124
 3.50   0.0000    582.1971    319.2584     25389.86      43.5214   7.31     1.887     1.830      2.000   0.02347072  17.0383        125
 4.29   0.0000    596.7602    782.6867     15386.63      43.5214 -62.08     3.302     3.182      3.549   0.02345215  17.5821        126
 5.97   0.0000    576.2225   1001.8235     1563.664      43.5214  40.80     1.216     1.076      2.198   0.02345745  20.0646        127
 4.64   0.0000    584.5398     76.0209     2002.524      43.5214  -0.84     1.205     1.138      2.080   0.02346276  19.7961        128
 4.19   0.0000   1001.5298   1555.4829     3826.613      43.5214  54.97     1.346     1.330      2.050   0.02343621  19.0930        129
 4.71   0.0000   1597.6036    654.7847     664.6458      43.5214   1.75     1.659     1.434      2.426   0.02016714  20.9935        130
 5.16   0.0000   1594.7568    374.1190     940.6874      43.5214  42.74     1.307     1.027      1.609   0.02266114  20.6164        131
 4.05   0.0000   1584.9181   1108.9316     4168.302      43.5214 -15.59     1.433     1.357      1.996   0.02344153  19.0001        132
 6.78   0.0000   1585.9497   1069.5099     1000.963      43.5214 -88.96     0.783     0.500      2.046   0.02344418  20.5490        133
 3.60   0.0000   1541.8564    135.1745     11210.86      43.5214  54.68     1.663     1.623      2.000   0.02346011  17.9259        134
 8.74   0.0000   1519.3268     85.3294     845.0319      43.5214 -44.88     0.573     0.336      1.807   0.02343356  20.7328        135
 4.79   0.0000   1514.6519    483.6263     1334.744      43.5214 -43.74     1.049     0.951      2.112   0.02346276  20.2365        136
 4.90   0.0000    912.4185   1001.2366      1437.01      43.5214  73.44     0.989     0.957      2.004   0.02346011  20.1563        137
 3.50   0.0000    900.4997    302.8331        18898      43.5214 -64.19     1.794     1.787      2.051    0.0234309  17.3590        138
