#   1 KRON_RADIUS            Kron apertures in units of A or B                         
#   2 MAGERR_APER            RMS error vector for fixed aperture mag.                   [mag]
#   3 Y_IMAGE                Object position along y                                    [pixel]
#   4 X_IMAGE                Object position along x                                    [pixel]
#   5 THETA_IMAGE            Position angle (CCW/x)                                     [deg]
#   6 FLUX_APER              Flux vector within fixed circular aperture(s)              [count]
#   7 A_IMAGE                Profile RMS along major axis                               [pixel]
#   8 THRESHOLD              Detection threshold above background                       [count]
#   9 B_IMAGE                Profile RMS along minor axis                               [pixel]
#  10 FLUX_RADIUS            Fraction-of-light radii                                    [pixel]
#  11 FLUXERR_APER           RMS error vector for aperture flux(es)                     [count]
#  12 MAG_APER               Fixed aperture magnitude vector                            [mag]
#  13 NUMBER                 Running object number                                     
 4.37   0.0000     53.2492     63.7991   2.40     27974.04     4.357           15     3.984      7.739  0.006059689  16.9331          1
 4.10   0.0000     16.4718    985.1567 -88.07     4455.024     3.735           15     1.698      5.179  0.006053524  18.9279          2
 3.97   0.0000     17.9865     91.3714 -53.26     4216.073     1.570           15     1.488      0.975   0.00605695  18.9877          3
 3.50   0.0000     14.5972   1445.8169 -80.07     11056.44     1.744           15     1.672      1.114  0.006053524  17.9410          4
 6.99   0.0000     17.1821    384.7968 -45.25     524.7634     0.753           15     0.567      1.135  0.006053524  21.2501          5
 5.12   0.0000     24.7609    367.2383  39.82     803.2453     1.062           15     1.038      0.853  0.006057635  20.7879          6
 3.50   0.0000     59.7664   1078.5476  80.39     39916.48     2.148           15     2.001      1.496  0.006057635  16.5471          7
 3.50   0.0000     80.0907    537.6920 -71.63     35687.62     2.048           15     1.992      1.491   0.00604941  16.6687          8
 4.34   0.0000     75.2280    128.2098 -42.79     1749.683     1.334           15     1.292      0.923  0.006056265  19.9426          9
 8.75   0.0000     82.4950    421.5017 -44.79     316.4418     0.501           15     0.499      1.486   0.00604941  21.7993         10
 3.50   0.0000    121.7744    789.2222 -67.47     53124.23     2.120           15     2.061      1.509   0.00605695  16.2368         11
 8.24   0.0000     90.7881    376.9991  89.85     666.1714     0.946           15     0.770      3.452  0.006054895  20.9910         12
 4.37   0.0000     96.5909     56.2589 -21.93     2567.758     1.408           15     1.318      0.945  0.006059689  19.5261         13
 7.57   0.0000     98.0005    453.0040 -43.86     470.3939     0.898           15     0.535      2.285   0.00605558  21.3688         14
 3.50   0.0000    162.2509   1468.3955 -79.64     32927.48     2.033           15     1.946      1.393  0.006059689  16.7561         15
 3.61   0.0000    170.2679    877.3882 -62.71     9927.313     1.723           15     1.681      1.109  0.006059005  18.0579         16
 5.50   0.0000    164.9924   1445.5902 -89.97     682.5115     1.087           15     0.949      0.874  0.006052839  20.9647         17
 5.22   0.0000    166.6618    104.3994 -43.06     586.6597     0.998           15     0.873      0.994  0.006059689  21.1290         18
 5.60   0.0000    192.6395   1350.5353  80.76     1026.459     1.088           15     1.003      0.992  0.006056265  20.5216         19
 5.55   0.0000    210.6582    827.6677  -6.34     3042.663     2.747           15     1.712      6.357   0.00605421  19.3419         20
 4.24   0.0000    206.6921    549.1891  64.24      1810.05     1.319           15     1.299      0.846   0.00605421  19.9058         21
 4.20   0.0000    212.1993   1306.1979 -78.19     1704.765     1.352           15     1.291      0.817   0.00605695  19.9708         22
 6.11   0.0000    230.0650    562.1762 -37.98     2788.151     2.561           15     2.306      7.384   0.00605695  19.4367         23
 7.21   0.0000    210.8688    684.8645 -46.17     426.9014     0.834           15     0.678      1.494  0.006052153  21.4742         24
 3.91   0.0000    223.9686   1226.1376  86.77     2077.342     1.401           15     1.322      0.647   0.00605558  19.7562         25
 3.50   0.0000    259.7245    997.4921 -72.06      86268.3     2.227           15     2.157      1.612  0.006051468  15.7104         26
 5.13   0.0000    222.5072    774.9922  -1.68     667.8486     1.082           15     0.952      0.937   0.00605421  20.9883         27
 3.50   0.0000    265.8916     67.6592 -62.74     65206.04     2.148           15     2.101      1.532  0.006052153  16.0143         28
 6.33   0.0000    244.0010    112.9882 -80.50     1116.858     1.555           15     1.218      2.371  0.006054895  20.4300         29
 7.80   0.0000    239.2809    838.9832  -2.94     361.1115     0.742           15     0.683      1.524   0.00605695  21.6559         30
 5.14   0.0000    255.4213    613.0656 -35.57      2889.74     2.017           15     1.708      2.266   0.00605695  19.3979         31
 8.38   0.0000    250.5010    107.5009 -45.00     383.5031     0.502           15     0.498      1.015   0.00604941  21.5906         32
 3.50   0.0000    287.5008   1486.5306 -70.04     19669.17     1.912           15     1.832      1.176  0.006052153  17.3155         33
 3.73   0.0000    281.8641   1522.4325 -68.81     4815.296     1.578           15     1.530      0.926   0.00605558  18.8434         34
 8.46   0.0000    270.6871   1273.6602 -43.74     332.0033     0.571           15     0.336      1.088  0.006052153  21.7471         35
 3.50   0.0000    303.1224    201.8259 -70.31     15669.89     1.814           15     1.787      1.269   0.00605558  17.5623         36
 6.55   0.0000    293.4106   1475.6356 -46.77     646.6346     0.995           15     0.875      1.026   0.00605695  21.0234         37
 5.55   0.0000    302.2738    563.5635 -15.20     844.8826     0.984           15     0.953      1.041   0.00605421  20.7330         38
 3.50   0.0000    322.0353    697.3682 -75.04     11341.73     1.742           15     1.712      1.111  0.006056265  17.9133         39
 5.50   0.0000    327.5102    595.5055 -26.45     1476.068     1.401           15     1.390      1.205   0.00604941  20.1272         40
 8.79   0.0000    321.9905    641.4991 -88.31     660.7228     0.808           15     0.500      2.967  0.006052839  21.0000         41
 6.64   0.0000    332.0735     93.3000  80.04     425.9005     0.732           15     0.672      1.142   0.00604941  21.4767         42
 4.78   0.0000    350.0340     54.8757 -37.01     961.0113     1.148           15     1.130      1.058   0.00605421  20.5932         43
 3.67   0.0000    368.1146    761.1957 -69.51     11394.62     1.768           15     1.698      1.177  0.006054895  17.9082         44
 4.45   0.0000    361.2217   1500.5074 -58.49     1923.318     1.322           15     1.301      0.970  0.006053524  19.8399         45
 6.16   0.0000    360.5319   1034.0068 -89.68     455.3342     0.799           15     0.704      0.901  0.006059005  21.4042         46
 3.50   0.0000    395.1687    231.5045 -65.60     39785.48     2.053           15     2.012      1.467  0.006052153  16.5507         47
 3.55   0.0000    397.0243   1461.2343  87.70     7937.318     1.652           15     1.608      1.042  0.006056265  18.3008         48
 3.53   0.0000    398.1424    354.6748 -35.74     8992.457     1.702           15     1.657      1.112  0.006052839  18.1653         49
 4.16   0.0000    393.7128   1088.7422 -66.82     1861.167     1.309           15     1.244      0.886  0.006052839  19.8755         50
 8.97   0.0000    396.6698    626.6751 -45.24     582.8207     0.572           15     0.336      2.161  0.006050782  21.1362         51
 8.03   0.0000    412.4884      1.4985 -89.99     139.2576     1.100           15     0.500      4.215  0.004623455  22.6905         52
 3.50   0.0000    437.9201    252.1413 -80.22     17247.89     1.851           15     1.804      1.289  0.006053524  17.4582         53
 6.20   0.0000    420.8461    159.1396  44.41     693.6367     1.256           15     1.064      1.858  0.006054895  20.9472         54
 3.50   0.0000    461.0544    807.6869 -69.40     98701.09     2.242           15     2.186      1.594  0.006052153  15.5642         55
 4.56   0.0000    432.9372   1422.0659 -49.26     1218.957     1.190           15     1.123      0.601  0.006052153  20.3350         56
 8.00   0.0000    426.3267    433.6627  44.53      31385.2     0.576           15     0.334      3.386  0.006051468  16.8082         57
 6.07   0.0000    434.0292    151.0296  47.60     571.0896     0.785           15     0.783      0.957   0.00605558  21.1582         58
 3.82   0.0000    450.2974     21.4172 -76.10     5663.982     1.607           15     1.557      1.059   0.00605421  18.6672         59
 6.13   0.0000    445.2569    122.4241 -59.88     671.3799     1.150           15     0.955      1.257   0.00605695  20.9826         60
 5.79   0.0000    440.0038    305.7815  -0.69     614.4357     0.903           15     0.755      0.836   0.00605421  21.0788         61
 5.50   0.0000    467.7160    850.4396  22.49      3597.32     6.214           15     1.752     11.379  0.006054895  19.1601         62
 3.76   0.0000    457.8175     34.6510 -46.81     6392.493     1.641           15     1.575      0.990   0.00605695  18.5358         63
 4.39   0.0000    463.6512    468.6115  74.13     1865.289     1.350           15     1.322      0.956   0.00605832  19.8731         64
 6.04   0.0000    461.0798   1096.3517  15.46     569.8854     0.998           15     0.748      1.079  0.006052839  21.1605         65
 3.99   0.0000    472.0443    734.9708 -52.27     2360.875     1.390           15     1.378      0.783  0.006059005  19.6173         66
 4.61   0.0000    471.3667    254.3258 -43.81     1615.009     1.344           15     1.252      1.034   0.00605421  20.0296         67
 3.84   0.0000    477.9377    923.1066  72.21     3003.689     1.452           15     1.428      0.748  0.006052839  19.3559         68
 4.69   0.0000    477.4910   1276.5251 -45.49     1035.233     1.092           15     0.799      1.140  0.006051467  20.5124         69
 4.37   0.0000    484.0191   1070.6996  -6.91     1346.478     1.210           15     1.175      0.940  0.006051468  20.2270         70
 6.01   0.0000    496.1053     83.1115  50.20     1758.892     1.884           15     1.591      4.583   0.00604941  19.9369         71
 8.63   0.0000    488.4909    839.6686 -89.77     440.9655     0.943           15     0.471      3.687  0.006051468  21.4390         72
 6.13   0.0000    495.5521   1186.8837 -11.66     1769.174     2.280           15     1.434      5.646  0.006052839  19.9306         73
 4.85   0.0000    502.0215    863.7155  89.92     675.4323     1.068           15     1.028      0.779   0.00605558  20.9760         74
 6.51   0.0000    504.1061    762.9114 -42.71     1006.724     1.291           15     1.185      2.336  0.006050096  20.5427         75
 5.27   0.0000    515.3171   1461.1370  25.70     2349.143     3.247           15     1.350      6.156  0.006052153  19.6227         76
 7.27   0.0000    509.9713    165.8056  -2.30     686.0079     0.919           15     0.755      4.565  0.006056265  20.9592         77
 5.34   0.0000    513.7430   1179.4207 -16.38     754.1703     0.975           15     0.950      0.913  0.006057635  20.8563         78
 6.64   0.0000    519.0310    641.9885 -40.84     518.3563     0.798           15     0.789      1.359  0.006057635  21.2634         79
 4.34   0.0000    540.2678    999.9679 -83.58     1916.357     1.315           15     1.273      0.846  0.006056265  19.8438         80
 4.08   0.0000    558.9242   1041.8359  61.82     2540.064     1.412           15     1.386      0.814   0.00605421  19.5379         81
 5.05   0.0000    571.2046     45.9520  48.68     1561.356     1.777           15     1.283      2.290  0.006059689  20.0662         82
 3.50   0.0000    582.1641    319.2921 -56.60     11008.67     1.742           15     1.715      1.145  0.006052153  17.9457         83
 3.50   0.0000    580.6515    145.0341 -74.15     11265.81     1.737           15     1.686      1.116  0.006057635  17.9206         84
 5.96   0.0000    571.4419   1447.9792  26.56     1367.542     1.708           15     1.350      3.331   0.00605695  20.2101         85
 7.61   0.0000    564.7873    139.5964  71.59     446.0528     0.738           15     0.455      0.995  0.006052839  21.4265         86
 5.04   0.0000    596.6771    782.6903 -64.70     4297.456     2.798           15     2.492      6.837  0.006051468  18.9670         87
 7.81   0.0000    576.1833   1001.8245 -44.97     434.5223     0.763           15     0.571      1.467   0.00605421  21.4550         88
 5.26   0.0000    584.5250     76.1989 -81.79     620.7451     0.982           15     0.943      0.936   0.00605695  21.0677         89
 4.92   0.0000    999.8708   1273.8196 -45.51     982.7692     1.158           15     1.029      0.843  0.006059005  20.5689         90
 6.35   0.0000   1597.6212    654.8572 -17.19     373.2042     1.232           15     0.990      3.652  0.005205175  21.6201         91
 7.06   0.0000   1594.8591    374.1336  45.09     490.5679     0.838           15     0.672      1.459  0.005833627  21.3233         92
 5.97   0.0000   1546.0352    863.5189  67.46     1370.568     1.273           15     0.964      1.514  0.006054895  20.2077         93
 4.27   0.0000   1542.5936    654.7667  -9.51     3142.147     1.395           15     1.374      0.944   0.00605695  19.3069         94
 3.94   0.0000   1541.7943    135.1802  72.40     4340.164     1.503           15     1.450      0.833  0.006054895  18.9562         95
 3.54   0.0000   1038.6554    525.4937 -61.89     9297.134     1.726           15     1.694      1.048  0.006052153  18.1291         96
 3.50   0.0000   1025.7018   1380.0769 -83.27     19784.08     1.909           15     1.810      1.307  0.006050096  17.3092         97
 6.68   0.0000    986.7147    454.0607  85.30     1175.999     1.295           15     1.222      1.726  0.006052153  20.3740         98
 5.94   0.0000    980.9628    797.9971 -77.02     987.0952     1.187           15     1.170      1.406   0.00605558  20.5641         99
 7.35   0.0000    978.1801    452.8186 -45.70     541.2769     0.753           15     0.569      1.106   0.00605558  21.2164        100
 6.87   0.0000    965.0379    416.4961 -89.77     480.5276     0.784           15     0.500      0.935  0.006050782  21.3457        101
 6.93   0.0000    950.7533    654.4555  -2.99     908.1254     1.002           15     0.989      1.862  0.006054895  20.6546        102
 6.65   0.0000    947.8222    445.1938 -45.44      436.168     0.748           15     0.567      0.836  0.006054895  21.4509        103
 4.10   0.0000    939.1708   1067.2499 -76.19     2049.562     1.385           15     1.285      0.919  0.006057635  19.7708        104
 9.23   0.0000    938.4916    516.4865  45.39     714.8453     0.504           15     0.496      1.907   0.00604941  20.9145        105
 4.76   0.0000    928.2906   1322.6356  66.79     1155.842     1.130           15     1.104      1.031  0.006052839  20.3928        106
 4.70   0.0000    912.8324    838.5927 -75.27     966.8795     1.130           15     0.955      0.887  0.006056265  20.5866        107
 6.07   0.0000    912.1641   1001.1413 -44.58     602.8026     0.815           15     0.676      1.043  0.006056265  21.0996        108
 3.59   0.0000    900.3816    302.9015 -56.98     7138.792     1.642           15     1.617      1.067  0.006053524  18.4159        109
 5.87   0.0000    896.1433    538.3982  -0.40     1389.101     1.478           15     1.256      2.260  0.006060374  20.1932        110
 8.36   0.0000    893.5396   1426.4816 -31.55     424.2057     0.500           15     0.498      1.004  0.006051467  21.4811        111
 6.99   0.0000    888.6398    325.7913  22.54     819.5865     1.161           15     0.889      2.589   0.00605695  20.7660        112
 3.50   0.0000    880.1780   1592.6589 -81.56     58946.11     2.228           15     2.106      1.611  0.006057635  16.1239        113
 4.88   0.0000    885.8364   1500.2797  67.33     919.0716     1.118           15     1.017      0.828   0.00605421  20.6416        114
 5.37   0.0000    877.6447    961.0855 -75.72     602.3367     0.989           15     0.750      0.846  0.006053524  21.1004        115
 4.40   0.0000    869.4243   1103.7172 -46.36     2413.734     1.752           15     1.556      1.282  0.006054895  19.5933        116
 6.08   0.0000    867.9976    939.9743  38.43     999.0278     1.448           15     1.024      2.633  0.006054895  20.5511        117
 5.62   0.0000    858.4358   1339.6268 -53.19     713.5308     1.012           15     0.878      1.086  0.006056265  20.9165        118
 5.75   0.0000    844.9875   1063.9880 -44.90     571.7035     0.786           15     0.780      0.557   0.00605421  21.1571        119
 5.10   0.0000    843.2435   1106.2429  31.06     1080.505     1.322           15     1.115      1.222  0.006056265  20.4659        120
 4.52   0.0000    836.5932    298.8609 -78.07     1567.072     1.285           15     1.208      0.918  0.006060374  20.0623        121
 7.92   0.0000    835.5115    819.4685 -54.77     390.1875     0.501           15     0.498      1.002  0.006050782  21.5718        122
 3.61   0.0000    822.9625    654.4772 -76.30     7022.288     1.658           15     1.601      1.000   0.00605421  18.4338        123
 3.53   0.0000    803.0191   1378.7842 -73.81     6708.479     1.658           15     1.602      1.028   0.00605558  18.4834        124
 3.50   0.0000    798.4828    695.7690 -87.55     18373.43     2.515           15     1.794      2.036  0.006054895  17.3895        125
 4.21   0.0000    800.7248     41.2087 -49.92     3114.433     1.443           15     1.391      0.901   0.00605832  19.3166        126
 5.30   0.0000    774.3524   1427.3524 -89.60     2160.059     2.334           15     1.592      4.683   0.00605832  19.7138        127
 4.51   0.0000    742.8000    556.4390  -7.66     1629.166     1.279           15     1.255      0.940   0.00605695  20.0201        128
 5.55   0.0000    738.1602   1158.1676 -41.61      571.131     0.886           15     0.857      0.879  0.006057635  21.1582        129
 5.80   0.0000    736.1319    649.8373  41.46     632.4479     0.881           15     0.858      0.831   0.00605558  21.0474        130
 3.50   0.0000    726.5585    848.5452 -74.43     50990.34     2.114           15     2.060      1.498  0.006054895  16.2813        131
 4.62   0.0000    727.3411   1178.3016 -47.28       1110.1     1.129           15     1.099      1.045  0.006050782  20.4366        132
 7.58   0.0000    721.3962   1395.1848  18.81     444.7159     0.753           15     0.449      1.139  0.006053524  21.4298        133
 4.23   0.0000    715.8390    808.4616 -12.40     1416.309     1.271           15     1.255      0.890   0.00605558  20.1721        134
 4.40   0.0000    708.9507   1163.8972 -48.85     1455.808     1.226           15     1.164      0.687  0.006048038  20.1422        135
 4.87   0.0000    704.2919   1339.2717 -44.42     1400.744     1.431           15     1.288      1.356  0.006052153  20.1841        136
 4.01   0.0000    702.7967    952.6184 -44.98     2590.222     1.414           15     1.390      0.955  0.006053524  19.5167        137
 9.02   0.0000    699.2294    582.9828   0.69      643.434     0.708           15     0.420      2.807  0.006056265  21.0287        138
