#   1 KRON_RADIUS            Kron apertures in units of A or B                         
#   2 MAGERR_APER            RMS error vector for fixed aperture mag.                   [mag]
#   3 Y_IMAGE                Object position along y                                    [pixel]
#   4 X_IMAGE                Object position along x                                    [pixel]
#   5 FLUX_APER              Flux vector within fixed circular aperture(s)              [count]
#   6 THRESHOLD              Detection threshold above background                       [count]
#   7 THETA_IMAGE            Position angle (CCW/x)                                     [deg]
#   8 A_IMAGE                Profile RMS along major axis                               [pixel]
#   9 B_IMAGE                Profile RMS along minor axis                               [pixel]
#  10 FLUX_RADIUS            Fraction-of-light radii                                    [pixel]
#  11 FLUXERR_APER           RMS error vector for aperture flux(es)                     [count]
#  12 MAG_APER               Fixed aperture magnitude vector                            [mag]
#  13 NUMBER                 Running object number                                     
 4.23   0.0000     53.2652     63.6543     89543.39      43.5214   3.17     5.181     4.630      3.423   0.01037208  15.6699          1
 3.95   0.0000     16.5149    985.0804     14196.14      43.5214 -88.61     4.203     1.941      2.970   0.01036856  17.6696          2
 4.06   0.0000     18.0504     91.3141     11843.46      43.5214   0.42     1.768     1.716      1.996   0.01037091  17.8663          3
 3.50   0.0000     14.6167   1445.7477     27464.24      43.5214 -47.82     1.890     1.819      2.065   0.01037913  16.9531          4
 8.12   0.0000     10.2946   1183.6542     519.1435      43.5214  42.42     0.565     0.339      2.145   0.01036856  21.2618          5
 7.36   0.0000      4.2259    145.0241     659.7732      43.5214  89.83     0.957     0.768      2.620    0.0092957  21.0015          6
 6.64   0.0000     17.2495    384.5071     1187.095      43.5214  19.99     0.993     0.952      2.005   0.01036739  20.3638          7
 5.14   0.0000     24.7971    367.2085     2484.707      43.5214  13.81     1.305     1.234      2.015   0.01037208  19.5618          8
 3.50   0.0000     59.7850   1078.4766     107538.8      43.5214  77.02     2.287     2.159      2.124   0.01038265  15.4711          9
 8.57   0.0000     23.7800    383.3999     1316.383      43.5214 -71.85     0.755     0.452      2.147   0.01037561  20.2515         10
 6.41   0.0000     33.9023   1110.1802      1264.22      43.5214  68.24     1.657     0.778      2.264   0.01037091  20.2954         11
 7.88   0.0000     33.3076    326.9492      908.333      43.5214  -6.92     0.747     0.677      2.265   0.01036974  20.6544         12
 5.98   0.0000     37.8655   1521.1591     808.1179      43.5214  46.72     0.834     0.669      2.155   0.01037561  20.7813         13
 7.05   0.0000     38.8750   1170.6508     807.3093      43.5214 -19.52     0.923     0.691      2.114   0.01036856  20.7824         14
 5.87   0.0000     42.4605    915.4996     1067.039      43.5214 -77.10     0.913     0.907      1.981   0.01036739  20.4795         15
 3.50   0.0000     80.1536    537.6561     101328.9      43.5214 -59.56     2.145     2.122      2.023   0.01037443  15.5357         16
 9.02   0.0000     44.6655    440.6699     990.7776      43.5214 -45.19     0.576     0.334      1.877   0.01036974  20.5601         17
 4.26   0.0000     75.2162    128.0142     4938.773      43.5214  -5.75     1.516     1.469      2.139   0.01037561  18.8160         18
 6.64   0.0000     82.2787    421.5101     1091.858      43.5214 -15.66     0.994     0.986      2.218   0.01036739  20.4546         19
 3.50   0.0000    121.8120    789.2006     154986.9      43.5214 -62.81     2.230     2.179      2.066   0.01037561  15.0743         20
 6.02   0.0000     90.7295    376.9918      2746.18      43.5214   4.47     1.628     1.442      2.623    0.0103803  19.4532         21
 4.42   0.0000     96.6151     56.2576     7306.207      43.5214 -38.95     1.639     1.566      1.992   0.01037678  18.3908         22
 6.10   0.0000     98.0585    452.9797     1744.955      43.5214 -14.82     1.454     1.005      2.168   0.01037913  19.9455         23
 7.39   0.0000     91.4945    495.9650     872.5958      43.5214  -1.40     0.788     0.500      2.121   0.01036856  20.6980         24
 3.50   0.0000    162.2989   1468.3301     84327.59      43.5214 -48.48     2.111     2.074      2.069   0.01036974  15.7351         25
 6.85   0.0000    131.2865    418.0175      759.657      43.5214   5.64     0.729     0.681      2.207   0.01037443  20.8485         26
 3.55   0.0000    170.2996    877.3505     22377.36      43.5214  -8.96     1.882     1.865      2.029   0.01036151  17.1755         27
 8.52   0.0000    151.4999   1280.4825     570.2915      43.5214 -47.88     0.501     0.498      1.893   0.01036268  21.1598         28
 5.51   0.0000    164.9741   1445.6677     2092.489      43.5214  17.35     1.303     1.186      2.097   0.01037678  19.7483         29
 4.82   0.0000    166.8505    104.4303     1597.116      43.5214 -46.35     1.196     1.124      1.958   0.01037913  20.0417         30
 6.42   0.0000    169.3397   1368.8977     815.5159      43.5214  68.06     0.910     0.689      2.120   0.01036739  20.7714         31
 7.68   0.0000    180.3316    574.9897     1059.208      43.5214  53.18     1.039     0.643      2.142   0.01038148  20.4875         32
 7.49   0.0000    186.6387   1354.8976     1155.859      43.5214  75.59     1.045     0.753      2.387   0.01036621  20.3927         33
 5.30   0.0000    192.6023   1350.5554     2678.846      43.5214 -19.15     1.368     1.305      2.030   0.01038148  19.4801         34
 4.77   0.0000    210.7202    827.6749     10592.12      43.5214  -5.78     3.810     2.091      2.941   0.01037091  17.9875         35
 4.14   0.0000    206.7225    549.0807     5087.264      43.5214   3.37     1.545     1.484      2.063   0.01037208  18.7838         36
 4.19   0.0000    212.1664   1306.1005     5133.475      43.5214 -64.54     1.516     1.487      2.103   0.01036386  18.7740         37
 5.52   0.0000    230.1494    562.2775     9718.549      43.5214 -37.31     3.231     3.004      4.244   0.01036856  18.0810         38
 5.76   0.0000    210.8939    684.8484     1568.255      43.5214 -66.39     1.218     1.115      2.183   0.01036739  20.0615         39
 3.50   0.0000    259.7588    997.4791     283701.4      43.5214 -48.81     2.331     2.263      2.072   0.01037326  14.4178         40
 3.92   0.0000    223.9121   1226.0618     5992.518      43.5214  25.89     1.523     1.479      2.080   0.01036974  18.6060         41
 4.86   0.0000    222.6267    774.9695     2139.714      43.5214  81.57     1.224     1.191      2.021   0.01037678  19.7241         42
 3.50   0.0000    265.9002     67.6173     195744.4      43.5214 -49.31     2.268     2.237      2.046   0.01037091  14.8208         43
 5.52   0.0000    243.9732    112.8913     3688.372      43.5214 -88.19     1.951     1.539      2.642   0.01037208  19.1329         44
 4.81   0.0000    255.4885    613.0098      9851.53      43.5214 -41.01     2.436     2.028      2.419   0.01037561  18.0662         45
 6.52   0.0000    239.3535    838.8231     1648.985      43.5214  -5.84     1.203     1.102      2.221   0.01037795  20.0070         46
 7.18   0.0000    250.5180    107.4840     1304.645      43.5214 -42.78     1.108     0.852      2.143   0.01036856  20.2613         47
 3.50   0.0000    287.5196   1486.4733     48244.08      43.5214 -43.97     2.033     1.992      2.084   0.01036974  16.3414         48
 3.66   0.0000    281.9236   1522.4003     13085.32      43.5214   3.77     1.701     1.668      1.997   0.01037678  17.7580         49
 6.46   0.0000    270.7727   1273.6278     1092.251      43.5214  16.49     1.000     0.849      1.950   0.01037795  20.4542         50
 3.50   0.0000    303.1506    201.7659      36842.7      43.5214 -78.11     1.968     1.942      2.061   0.01037678  16.6341         51
 6.27   0.0000    293.2967   1475.8354     1397.934      43.5214 -33.66     1.250     1.086      1.989   0.01036504  20.1863         52
 4.64   0.0000    302.2875    563.6751     2122.501      43.5214  31.81     1.325     1.283      2.080   0.01036739  19.7329         53
 3.50   0.0000    322.0853    697.3419     26296.72      43.5214   1.78     1.882     1.848      1.974   0.01037091  17.0002         54
 7.64   0.0000    308.7069     85.2985     1056.588      43.5214  45.78     0.969     0.767      2.259   0.01036621  20.4902         55
 6.05   0.0000    321.9905    641.4783     2614.568      43.5214 -64.00     1.799     1.232      2.791   0.01037795  19.5065         56
 5.16   0.0000    327.5369    595.4523       5162.8      43.5214 -52.10     1.728     1.694      2.210   0.01037208  18.7678         57
 6.07   0.0000    329.2517   1546.0168     986.8035      43.5214 -87.78     0.913     0.756      2.192   0.01037913  20.5644         58
 5.83   0.0000    332.2679     93.4347     1415.195      43.5214  20.40     0.992     0.948      1.967   0.01037678  20.1730         59
 4.78   0.0000    350.1319     54.7084     2768.125      43.5214  -8.51     1.366     1.298      1.973   0.01036856  19.4445         60
 3.50   0.0000    368.1670    761.1217     25335.25      43.5214 -26.12     1.940     1.871      2.039   0.01037443  17.0407         61
 4.02   0.0000    361.1491   1500.4037     5245.533      43.5214 -15.08     1.586     1.464      2.116   0.01038265  18.7505         62
 3.50   0.0000    395.2009    231.4691     109734.9      43.5214 -63.05     2.184     2.143      2.025    0.0103803  15.4491         63
 5.78   0.0000    360.5269   1034.0070     1558.816      43.5214  -1.40     1.111     0.957      2.107    0.0103803  20.0680         64
 6.91   0.0000    375.4792    754.0627     1507.985      43.5214  56.22     1.715     0.961      2.005   0.01036856  20.1040         65
 7.68   0.0000    370.3091     71.9499      1048.39      43.5214 -10.89     0.743     0.672      2.119   0.01037208  20.4987         66
 6.47   0.0000    373.4826   1083.8826     1235.155      43.5214 -17.84     1.100     0.990      2.292   0.01036856  20.3207         67
 6.41   0.0001    380.6161      1.4882     71.13622      43.5214 -89.79     1.601     0.500      3.001  0.007927959  23.4198         68
 3.50   0.0000    397.0519   1461.2017     19125.86      43.5214 -44.85     1.804     1.797      2.079   0.01038265  17.3459         69
 3.50   0.0000    398.1799    354.6261     20959.33      43.5214 -13.53     1.890     1.844      1.999   0.01037561  17.2466         70
 8.09   0.0000    375.6552     87.2937     783.1566      43.5214  47.61     0.564     0.339      1.946   0.01036974  20.8154         71
 6.71   0.0000    380.1594    125.8447     922.1699      43.5214  44.65     0.818     0.680      1.923   0.01037795  20.6380         72
 4.22   0.0000    393.8183   1088.7736      4679.43      43.5214 -35.06     1.516     1.449      1.919   0.01037678  18.8745         73
 8.89   0.0000    382.4900     67.5055     685.5757      43.5214 -44.69     0.503     0.497      1.853   0.01036504  20.9599         74
 8.07   0.0000    388.6902   1195.3347     464.8064      43.5214  43.77     0.567     0.338      2.272   0.01037208  21.3818         75
 6.14   0.0001    412.0432      1.7727     168.5835      43.5214  90.00     2.505     0.701      4.387  0.008093696  22.4830         76
 7.90   0.0000    396.8768    626.5975     1900.428      43.5214 -73.71     1.239     0.985      2.778   0.01037678  19.8529         77
 8.16   0.0000    403.6928    526.4366     1039.515      43.5214  81.17     1.023     0.476      2.273   0.01036974  20.5079         78
 7.54   0.0000    407.0518    282.4902      659.101      43.5214 -88.59     0.787     0.500      2.006   0.01037208  21.0026         79
 3.50   0.0000    437.9478    252.1072      39985.1      43.5214 -87.21     2.006     1.974      2.096   0.01036974  16.5453         80
 3.50   0.0000    461.0704    807.6703       273873      43.5214 -68.51     2.341     2.304      2.039   0.01036386  14.4561         81
 5.83   0.0000    420.9021    159.0900     2536.677      43.5214  37.62     1.694     1.421      2.136   0.01036504  19.5393         82
 7.67   0.0000    419.5386   1580.4929     688.7272      43.5214  40.47     0.504     0.495      2.102   0.01036974  20.9549         83
 4.17   0.0000    432.9492   1422.0629     3660.396      43.5214   6.85     1.427     1.396      2.031   0.01037208  19.1412         84
 6.72   0.0000    426.5748   1179.2787     1288.038      43.5214  26.35     1.188     0.957      2.065   0.01037561  20.2752         85
 6.42   0.0000    426.8329    433.0970     101646.2      43.5214  -3.27     2.183     0.735      4.269   0.01036739  15.5323         86
 5.15   0.0000    434.2586    151.1154     1344.079      43.5214 -20.05     1.138     1.034      1.979   0.01037091  20.2289         87
 3.88   0.0000    450.3392     21.3603     14698.33      43.5214 -27.47     1.777     1.769      2.013   0.01037678  17.6318         88
 5.07   0.0000    467.7993    850.4810     12490.53      43.5214  22.59     7.403     2.054      4.782   0.01037678  17.8085         89
 9.05   0.0000    430.6650    719.3185     1491.718      43.5214  45.76     0.572     0.336      1.827   0.01036739  20.1158         90
 4.48   0.0000    440.0043    305.8401     1673.364      43.5214  22.45     1.160     1.136      1.914   0.01037678  19.9910         91
 5.42   0.0000    445.2589    122.3780     2502.262      43.5214 -23.52     1.401     1.309      2.159   0.01037913  19.5542         92
 3.80   0.0000    457.8408     34.5939     16899.68      43.5214 -30.83     1.779     1.767      1.962   0.01037795  17.4803         93
 8.05   0.0000    443.6886    655.3237     993.5115      43.5214  44.36     0.563     0.340      2.051   0.01036621  20.5571         94
 4.32   0.0000    463.6414    468.6490     5277.074      43.5214  70.99     1.619     1.558      2.082   0.01037913  18.7440         95
 6.24   0.0000    452.9206   1533.0249     866.5275      43.5214 -31.03     0.792     0.774      2.163   0.01037561  20.7055         96
 5.22   0.0000    460.9918   1096.1410     1864.179      43.5214  47.71     1.191     1.080      2.143   0.01038265  19.8738         97
 4.60   0.0000    471.3581    254.2742     4439.738      43.5214 -79.51     1.510     1.439      2.033   0.01037326  18.9316         98
 4.03   0.0000    472.1380    734.9207     6606.673      43.5214  75.27     1.566     1.511      2.069   0.01036856  18.5000         99
 7.71   0.0000    461.8358    724.7247     981.6458      43.5214 -20.12     0.949     0.683      2.247   0.01037326  20.5701        100
 3.70   0.0000    477.9271    923.0840       8746.3      43.5214 -28.67     1.679     1.612      2.017   0.01036856  18.1954        101
 4.34   0.0000    477.2791   1276.4363     3193.704      43.5214 -44.53     1.334     0.920      2.969   0.01037326  19.2893        102
 5.84   0.0000    488.9431    839.6031      1715.79      43.5214  87.10     2.059     0.959      2.664   0.01038265  19.9638        103
 4.14   0.0000    484.0388   1070.6680     4043.158      43.5214 -80.82     1.429     1.400      2.019   0.01037561  19.0332        104
 7.10   0.0000    475.9789   1168.4807     663.6155      43.5214  89.68     0.781     0.500      1.959   0.01037678  20.9952        105
 5.40   0.0000    496.2654     82.9187      6260.75      43.5214  66.13     2.311     2.046      3.008   0.01036739  18.5584        106
 6.87   0.0000    478.8629    682.8434     1090.738      43.5214 -46.10     0.819     0.679      1.954   0.01037326  20.4557        107
 5.12   0.0000    495.7248   1186.8407     6130.614      43.5214 -15.71     2.996     1.931      3.276   0.01037326  18.5812        108
 5.26   0.0000    504.0796    762.8668     2981.175      43.5214 -10.71     1.688     1.646      2.454   0.01036739  19.3640        109
 4.77   0.0000    502.0138    863.8067     2258.225      43.5214  64.62     1.201     1.192      2.119   0.01036974  19.6656        110
 4.57   0.0000    515.3623   1461.0657      7377.52      43.5214  23.93     4.115     1.649      3.048   0.01037678  18.3802        111
 6.08   0.0000    498.0054    366.2516     919.0137      43.5214   0.37     0.926     0.749      2.173   0.01038265  20.6417        112
 6.08   0.0000    509.9191    164.8152      2090.17      43.5214  -5.95     1.820     1.073      2.739   0.01037795  19.7495        113
 4.83   0.0000    513.8598   1179.1876     2177.042      43.5214  24.06     1.285     1.178      2.061   0.01037795  19.7053        114
 5.52   0.0000    519.1540    641.9484     1511.078      43.5214  22.36     1.200     1.120      2.126    0.0103803  20.1018        115
 6.45   0.0000    518.1915   1519.1722     810.0962      43.5214  45.74     0.761     0.567      2.198   0.01037678  20.7787        116
 4.09   0.0000    540.2067    999.9378     5146.805      43.5214  61.15     1.534     1.490      2.092   0.01038148  18.7712        117
 6.53   0.0000    536.3547    404.5305     1164.899      43.5214  38.93     1.195     0.786      1.937   0.01037208  20.3843        118
 3.90   0.0000    558.9035   1041.7982     6793.162      43.5214   6.20     1.633     1.563      1.999   0.01037443  18.4698        119
 4.74   0.0000    571.3472     45.9143     4988.441      43.5214  46.17     2.084     1.522      2.183   0.01036974  18.8051        120
 5.98   0.0000    555.8228    778.8107     655.3699      43.5214  44.57     0.756     0.567      2.069   0.01037443  21.0088        121
 3.50   0.0000    580.7163    144.9663     26398.78      43.5214  83.47     1.885     1.868      2.051   0.01037561  16.9960        122
 4.85   0.0000    571.3085   1447.7944     4306.636      43.5214  19.43     2.258     1.637      2.726   0.01037091  18.9647        123
 5.88   0.0000    565.0881    139.5546     1219.337      43.5214 -69.74     1.052     0.977      1.892   0.01037091  20.3347        124
 3.50   0.0000    582.1971    319.2584     24158.05      43.5214   7.31     1.887     1.830      1.996   0.01038265  17.0923        125
 4.29   0.0000    596.7602    782.6867     14453.95      43.5214 -62.08     3.302     3.182      3.564   0.01037443  17.6500        126
 5.97   0.0000    576.2225   1001.8235     1481.728      43.5214  40.80     1.216     1.076      2.218   0.01037678  20.1231        127
 4.64   0.0000    584.5398     76.0209     1851.228      43.5214  -0.84     1.205     1.138      2.059   0.01037913  19.8813        128
 4.19   0.0000   1001.5298   1555.4829     3540.358      43.5214  54.97     1.346     1.330      2.053   0.01036739  19.1774        129
 4.71   0.0000   1597.6036    654.7847     631.7258      43.5214   1.75     1.659     1.434      2.336  0.008921257  21.0487        130
 5.16   0.0000   1594.7568    374.1190     875.3675      43.5214  42.74     1.307     1.027      1.585   0.01002452  20.6945        131
 4.05   0.0000   1584.9181   1108.9316     3872.374      43.5214 -15.59     1.433     1.357      1.991   0.01036974  19.0801        132
 6.78   0.0000   1585.9497   1069.5099     929.5029      43.5214 -88.96     0.783     0.500      2.048   0.01037091  20.6294        133
 3.60   0.0000   1541.8564    135.1745     10437.04      43.5214  54.68     1.663     1.623      1.993   0.01037795  18.0036        134
 8.74   0.0000   1519.3268     85.3294     761.4639      43.5214 -44.88     0.573     0.336      1.731   0.01036621  20.8459        135
 4.79   0.0000   1514.6519    483.6263      1235.98      43.5214 -43.74     1.049     0.951      2.108   0.01037913  20.3200        136
 4.90   0.0000    912.4185   1001.2366     1303.395      43.5214  73.44     0.989     0.957      1.994   0.01037795  20.2623        137
 3.50   0.0000    900.4997    302.8331     17899.81      43.5214 -64.19     1.794     1.787      2.043   0.01036504  17.4179        138
