#   1 KRON_RADIUS            Kron apertures in units of A or B                         
#   2 MAGERR_APER            RMS error vector for fixed aperture mag.                   [mag]
#   3 Y_IMAGE                Object position along y                                    [pixel]
#   4 X_IMAGE                Object position along x                                    [pixel]
#   5 FLUX_APER              Flux vector within fixed circular aperture(s)              [count]
#   6 THRESHOLD              Detection threshold above background                       [count]
#   7 THETA_IMAGE            Position angle (CCW/x)                                     [deg]
#   8 A_IMAGE                Profile RMS along major axis                               [pixel]
#   9 B_IMAGE                Profile RMS along minor axis                               [pixel]
#  10 FLUX_RADIUS            Fraction-of-light radii                                    [pixel]
#  11 FLUXERR_APER           RMS error vector for aperture flux(es)                     [count]
#  12 MAG_APER               Fixed aperture magnitude vector                            [mag]
#  13 NUMBER                 Running object number                                     
 4.23   0.0000     53.2652     63.6543     86354.02      43.5214   3.17     5.181     4.630      3.528   0.01608622  15.7093          1
 3.95   0.0000     16.5149    985.0804     13731.01      43.5214 -88.61     4.203     1.941      3.102   0.01608075  17.7057          2
 4.06   0.0000     18.0504     91.3141     11432.37      43.5214   0.42     1.768     1.716      2.122   0.01608439  17.9047          3
 3.50   0.0000     14.6167   1445.7477     26810.44      43.5214 -47.82     1.890     1.819      2.241   0.01609714  16.9792          4
 8.12   0.0000     10.2946   1183.6542     496.8318      43.5214  42.42     0.565     0.339      2.259   0.01608075  21.3095          5
 7.36   0.0000      4.2259    145.0241     628.5793      43.5214  89.83     0.957     0.768      2.674   0.01441684  21.0541          6
 6.64   0.0000     17.2495    384.5071     1176.359      43.5214  19.99     0.993     0.952      2.201   0.01607893  20.3736          7
 5.14   0.0000     24.7971    367.2085     2405.266      43.5214  13.81     1.305     1.234      2.101   0.01608622  19.5971          8
 3.50   0.0000     59.7850   1078.4766     103435.6      43.5214  77.02     2.287     2.159      2.298    0.0161026  15.5133          9
 8.57   0.0000     23.7800    383.3999     1335.976      43.5214 -71.85     0.755     0.452      2.175   0.01609168  20.2355         10
 6.41   0.0000     33.9023   1110.1802     1229.145      43.5214  68.24     1.657     0.778      2.404   0.01608439  20.3260         11
 7.88   0.0000     33.3076    326.9492      881.921      43.5214  -6.92     0.747     0.677      2.362   0.01608257  20.6864         12
 5.98   0.0000     37.8655   1521.1591     803.4134      43.5214  46.72     0.834     0.669      2.259   0.01609168  20.7877         13
 7.05   0.0000     38.8750   1170.6508     784.4885      43.5214 -19.52     0.923     0.691      2.265   0.01608075  20.8135         14
 5.87   0.0000     42.4605    915.4996     1034.276      43.5214 -77.10     0.913     0.907      2.128   0.01607893  20.5134         15
 3.50   0.0000     80.1536    537.6561     98844.89      43.5214 -59.56     2.145     2.122      2.180   0.01608986  15.5626         16
 9.02   0.0000     44.6655    440.6699     957.7237      43.5214 -45.19     0.576     0.334      1.969   0.01608257  20.5969         17
 4.26   0.0000     75.2162    128.0142     4772.177      43.5214  -5.75     1.516     1.469      2.218   0.01609168  18.8532         18
 6.64   0.0000     82.2787    421.5101     1066.731      43.5214 -15.66     0.994     0.986      2.361   0.01607893  20.4799         19
 3.50   0.0000    121.8120    789.2006     151146.4      43.5214 -62.81     2.230     2.179      2.185   0.01609168  15.1015         20
 6.02   0.0000     90.7295    376.9918     2619.896      43.5214   4.47     1.628     1.442      2.687   0.01609896  19.5043         21
 4.42   0.0000     96.6151     56.2576     7068.799      43.5214 -38.95     1.639     1.566      2.090    0.0160935  18.4266         22
 6.10   0.0000     98.0585    452.9797     1689.168      43.5214 -14.82     1.454     1.005      2.264   0.01609714  19.9808         23
 7.39   0.0000     91.4945    495.9650     839.8611      43.5214  -1.40     0.788     0.500      2.230   0.01608075  20.7395         24
 3.50   0.0000    162.2989   1468.3301     83607.51      43.5214 -48.48     2.111     2.074      2.213   0.01608257  15.7444         25
 6.85   0.0000    131.2865    418.0175     724.3626      43.5214   5.64     0.729     0.681      2.249   0.01608986  20.9001         26
 3.55   0.0000    170.2996    877.3505     21996.43      43.5214  -8.96     1.882     1.865      2.126   0.01606981  17.1941         27
 8.52   0.0000    151.4999   1280.4825     546.7391      43.5214 -47.88     0.501     0.498      2.059   0.01607164  21.2055         28
 5.51   0.0000    164.9741   1445.6677     2032.657      43.5214  17.35     1.303     1.186      2.262    0.0160935  19.7798         29
 4.82   0.0000    166.8505    104.4303     1558.506      43.5214 -46.35     1.196     1.124      2.059   0.01609714  20.0682         30
 6.42   0.0000    169.3397   1368.8977     782.7427      43.5214  68.06     0.910     0.689      2.239   0.01607893  20.8160         31
 7.68   0.0000    180.3316    574.9897     1018.851      43.5214  53.18     1.039     0.643      2.243   0.01610078  20.5297         32
 7.49   0.0000    186.6387   1354.8976      1128.37      43.5214  75.59     1.045     0.753      2.528    0.0160771  20.4189         33
 5.30   0.0000    192.6023   1350.5554     2564.833      43.5214 -19.15     1.368     1.305      2.192   0.01610078  19.5274         34
 4.77   0.0000    210.7202    827.6749     10212.74      43.5214  -5.78     3.810     2.091      3.016   0.01608439  18.0271         35
 4.14   0.0000    206.7225    549.0807       4942.5      43.5214   3.37     1.545     1.484      2.168   0.01608622  18.8151         36
 4.19   0.0000    212.1664   1306.1005      4962.01      43.5214 -64.54     1.516     1.487      2.192   0.01607346  18.8109         37
 5.52   0.0000    230.1494    562.2775     9333.369      43.5214 -37.31     3.231     3.004      4.273   0.01608075  18.1249         38
 5.76   0.0000    210.8939    684.8484     1527.772      43.5214 -66.39     1.218     1.115      2.308   0.01607893  20.0899         39
 3.50   0.0000    259.7588    997.4791     293600.3      43.5214 -48.81     2.331     2.263      2.186   0.01608804  14.3806         40
 3.92   0.0000    223.9121   1226.0618     5782.924      43.5214  25.89     1.523     1.479      2.172   0.01608257  18.6446         41
 4.86   0.0000    222.6267    774.9695     2068.646      43.5214  81.57     1.224     1.191      2.145    0.0160935  19.7608         42
 3.50   0.0000    265.9002     67.6173     190187.1      43.5214 -49.31     2.268     2.237      2.202   0.01608439  14.8520         43
 5.52   0.0000    243.9732    112.8913     3624.879      43.5214 -88.19     1.951     1.539      2.822   0.01608622  19.1518         44
 4.81   0.0000    255.4885    613.0098     9531.181      43.5214 -41.01     2.436     2.028      2.529   0.01609168  18.1021         45
 6.52   0.0000    239.3535    838.8231     1589.415      43.5214  -5.84     1.203     1.102      2.340   0.01609532  20.0469         46
 7.18   0.0000    250.5180    107.4840     1260.447      43.5214 -42.78     1.108     0.852      2.277   0.01608075  20.2987         47
 3.50   0.0000    287.5196   1486.4733     47467.84      43.5214 -43.97     2.033     1.992      2.224   0.01608257  16.3590         48
 3.66   0.0000    281.9236   1522.4003     12782.69      43.5214   3.77     1.701     1.668      2.106    0.0160935  17.7834         49
 6.46   0.0000    270.7727   1273.6278     1067.431      43.5214  16.49     1.000     0.849      2.051   0.01609532  20.4791         50
 3.50   0.0000    303.1506    201.7659     36103.03      43.5214 -78.11     1.968     1.942      2.223    0.0160935  16.6561         51
 6.27   0.0000    293.2967   1475.8354     1360.643      43.5214 -33.66     1.250     1.086      2.103   0.01607528  20.2156         52
 4.64   0.0000    302.2875    563.6751     2064.976      43.5214  31.81     1.325     1.283      2.206   0.01607893  19.7627         53
 3.50   0.0000    322.0853    697.3419     25843.11      43.5214   1.78     1.882     1.848      2.077   0.01608439  17.0191         54
 7.64   0.0000    308.7069     85.2985     1002.182      43.5214  45.78     0.969     0.767      2.431    0.0160771  20.5476         55
 6.05   0.0000    321.9905    641.4783     2518.211      43.5214 -64.00     1.799     1.232      2.902   0.01609532  19.5473         56
 5.16   0.0000    327.5369    595.4523     5013.473      43.5214 -52.10     1.728     1.694      2.337   0.01608622  18.7997         57
 6.07   0.0000    329.2517   1546.0168     949.9293      43.5214 -87.78     0.913     0.756      2.273   0.01609714  20.6058         58
 5.83   0.0000    332.2679     93.4347     1368.392      43.5214  20.40     0.992     0.948      2.097    0.0160935  20.2095         59
 4.78   0.0000    350.1319     54.7084     2677.397      43.5214  -8.51     1.366     1.298      2.139   0.01608075  19.4807         60
 3.50   0.0000    368.1670    761.1217     24977.42      43.5214 -26.12     1.940     1.871      2.139   0.01608986  17.0561         61
 4.02   0.0000    361.1491   1500.4037     5137.501      43.5214 -15.08     1.586     1.464      2.274    0.0161026  18.7731         62
 3.50   0.0000    395.2009    231.4691       107367      43.5214 -63.05     2.184     2.143      2.191   0.01609896  15.4728         63
 5.78   0.0000    360.5269   1034.0070      1505.07      43.5214  -1.40     1.111     0.957      2.250   0.01609896  20.1061         64
 6.91   0.0000    375.4792    754.0627     1456.356      43.5214  56.22     1.715     0.961      2.109   0.01608075  20.1418         65
 7.68   0.0000    370.3091     71.9499     1008.913      43.5214 -10.89     0.743     0.672      2.222   0.01608622  20.5404         66
 6.47   0.0000    373.4826   1083.8826     1177.719      43.5214 -17.84     1.100     0.990      2.381   0.01608075  20.3724         67
 6.41   0.0002    380.6161      1.4882     81.52104      43.5214 -89.79     1.601     0.500      3.001   0.01229559  23.2718         68
 3.50   0.0000    397.0519   1461.2017     18731.07      43.5214 -44.85     1.804     1.797      2.171    0.0161026  17.3686         69
 3.50   0.0000    398.1799    354.6261     20643.67      43.5214 -13.53     1.890     1.844      2.186   0.01609168  17.2630         70
 8.09   0.0000    375.6552     87.2937     763.4374      43.5214  47.61     0.564     0.339      2.072   0.01608257  20.8431         71
 6.71   0.0000    380.1594    125.8447     891.7477      43.5214  44.65     0.818     0.680      2.063   0.01609532  20.6744         72
 4.22   0.0000    393.8183   1088.7736     4514.035      43.5214 -35.06     1.516     1.449      2.116    0.0160935  18.9136         73
 8.89   0.0000    382.4900     67.5055     658.2686      43.5214 -44.69     0.503     0.497      1.960   0.01607528  21.0040         74
 8.07   0.0000    388.6902   1195.3347     451.1543      43.5214  43.77     0.567     0.338      2.375   0.01608622  21.4142         75
 6.14   0.0001    412.0432      1.7727     181.9306      43.5214  90.00     2.505     0.701      4.321   0.01255263  22.4002         76
 7.90   0.0000    396.8768    626.5975     1832.289      43.5214 -73.71     1.239     0.985      2.886    0.0160935  19.8925         77
 8.16   0.0000    403.6928    526.4366     985.4212      43.5214  81.17     1.023     0.476      2.381   0.01608257  20.5659         78
 7.54   0.0000    407.0518    282.4902     641.3749      43.5214 -88.59     0.787     0.500      2.039   0.01608622  21.0322         79
 3.50   0.0000    437.9478    252.1072     39191.67      43.5214 -87.21     2.006     1.974      2.189   0.01608257  16.5670         80
 3.50   0.0000    461.0704    807.6703     270979.8      43.5214 -68.51     2.341     2.304      2.195   0.01607346  14.4677         81
 5.83   0.0000    420.9021    159.0900     2451.786      43.5214  37.62     1.694     1.421      2.231   0.01607528  19.5763         82
 7.67   0.0000    419.5386   1580.4929     683.9972      43.5214  40.47     0.504     0.495      2.242   0.01608257  20.9624         83
 4.17   0.0000    432.9492   1422.0629      3541.53      43.5214   6.85     1.427     1.396      2.121   0.01608622  19.1770         84
 6.72   0.0000    426.5748   1179.2787     1249.402      43.5214  26.35     1.188     0.957      2.197   0.01609168  20.3082         85
 6.42   0.0000    426.8329    433.0970      95180.5      43.5214  -3.27     2.183     0.735      4.310   0.01607893  15.6036         86
 5.15   0.0000    434.2586    151.1154     1307.737      43.5214 -20.05     1.138     1.034      2.087   0.01608439  20.2587         87
 3.88   0.0000    450.3392     21.3603     14393.32      43.5214 -27.47     1.777     1.769      2.127    0.0160935  17.6546         88
 5.07   0.0000    467.7993    850.4810     11988.66      43.5214  22.59     7.403     2.054      4.797    0.0160935  17.8531         89
 9.05   0.0000    430.6650    719.3185     1399.973      43.5214  45.76     0.572     0.336      1.906   0.01607893  20.1847         90
 4.48   0.0000    440.0043    305.8401     1624.912      43.5214  22.45     1.160     1.136      2.069    0.0160935  20.0229         91
 5.42   0.0000    445.2589    122.3780     2402.121      43.5214 -23.52     1.401     1.309      2.305   0.01609714  19.5985         92
 3.80   0.0000    457.8408     34.5939     16441.66      43.5214 -30.83     1.779     1.767      2.147   0.01609532  17.5101         93
 8.05   0.0000    443.6886    655.3237     956.9572      43.5214  44.36     0.563     0.340      2.122    0.0160771  20.5978         94
 4.32   0.0000    463.6414    468.6490     5115.555      43.5214  70.99     1.619     1.558      2.250   0.01609714  18.7778         95
 6.24   0.0000    452.9206   1533.0249     840.5281      43.5214 -31.03     0.792     0.774      2.269   0.01609168  20.7386         96
 5.22   0.0000    460.9918   1096.1410     1807.849      43.5214  47.71     1.191     1.080      2.263    0.0161026  19.9071         97
 4.60   0.0000    471.3581    254.2742     4319.452      43.5214 -79.51     1.510     1.439      2.164   0.01608804  18.9614         98
 4.03   0.0000    472.1380    734.9207     6375.173      43.5214  75.27     1.566     1.511      2.170   0.01608075  18.5388         99
 7.71   0.0000    461.8358    724.7247     937.8101      43.5214 -20.12     0.949     0.683      2.356   0.01608804  20.6197        100
 3.70   0.0000    477.9271    923.0840      8457.28      43.5214 -28.67     1.679     1.612      2.131   0.01608075  18.2319        101
 4.34   0.0000    477.2791   1276.4363     3085.954      43.5214 -44.53     1.334     0.920      3.048   0.01608804  19.3265        102
 5.84   0.0000    488.9431    839.6031     1650.679      43.5214  87.10     2.059     0.959      2.807    0.0161026  20.0058        103
 4.14   0.0000    484.0388   1070.6680     3900.385      43.5214 -80.82     1.429     1.400      2.193   0.01609168  19.0722        104
 7.10   0.0000    475.9789   1168.4807     645.3174      43.5214  89.68     0.781     0.500      2.106    0.0160935  21.0256        105
 5.40   0.0000    496.2654     82.9187     6021.873      43.5214  66.13     2.311     2.046      3.131   0.01607893  18.6007        106
 6.87   0.0000    478.8629    682.8434     1057.149      43.5214 -46.10     0.819     0.679      2.178   0.01608804  20.4897        107
 5.12   0.0000    495.7248   1186.8407     5866.724      43.5214 -15.71     2.996     1.931      3.343   0.01608804  18.6290        108
 5.26   0.0000    504.0796    762.8668       2875.4      43.5214 -10.71     1.688     1.646      2.583   0.01607893  19.4033        109
 4.77   0.0000    502.0138    863.8067     2156.847      43.5214  64.62     1.201     1.192      2.260   0.01608257  19.7155        110
 4.57   0.0000    515.3623   1461.0657     7119.832      43.5214  23.93     4.115     1.649      3.114    0.0160935  18.4188        111
 6.08   0.0000    498.0054    366.2516     886.1062      43.5214   0.37     0.926     0.749      2.326    0.0161026  20.6813        112
 6.08   0.0000    509.9191    164.8152     2027.738      43.5214  -5.95     1.820     1.073      2.836   0.01609532  19.7825        113
 4.83   0.0000    513.8598   1179.1876     2121.259      43.5214  24.06     1.285     1.178      2.163   0.01609532  19.7335        114
 5.52   0.0000    519.1540    641.9484     1470.474      43.5214  22.36     1.200     1.120      2.263   0.01609896  20.1314        115
 6.45   0.0000    518.1915   1519.1722     788.2975      43.5214  45.74     0.761     0.567      2.268    0.0160935  20.8083        116
 4.09   0.0000    540.2067    999.9378     4941.307      43.5214  61.15     1.534     1.490      2.200   0.01610078  18.8154        117
 6.53   0.0000    536.3547    404.5305     1120.922      43.5214  38.93     1.195     0.786      2.052   0.01608622  20.4261        118
 3.90   0.0000    558.9035   1041.7982     6557.712      43.5214   6.20     1.633     1.563      2.169   0.01608986  18.5081        119
 4.74   0.0000    571.3472     45.9143      4845.52      43.5214  46.17     2.084     1.522      2.311   0.01608257  18.8366        120
 5.98   0.0000    555.8228    778.8107      638.171      43.5214  44.57     0.756     0.567      2.236   0.01608986  21.0377        121
 3.50   0.0000    580.7163    144.9663     25927.61      43.5214  83.47     1.885     1.868      2.190   0.01609168  17.0156        122
 4.85   0.0000    571.3085   1447.7944     4152.931      43.5214  19.43     2.258     1.637      2.805   0.01608439  19.0041        123
 5.88   0.0000    565.0881    139.5546     1189.704      43.5214 -69.74     1.052     0.977      2.080   0.01608439  20.3614        124
 3.50   0.0000    582.1971    319.2584     23791.68      43.5214   7.31     1.887     1.830      2.079    0.0161026  17.1089        125
 4.29   0.0000    596.7602    782.6867     13906.56      43.5214 -62.08     3.302     3.182      3.631   0.01608986  17.6919        126
 5.97   0.0000    576.2225   1001.8235     1452.567      43.5214  40.80     1.216     1.076      2.326    0.0160935  20.1447        127
 4.64   0.0000    584.5398     76.0209     1788.884      43.5214  -0.84     1.205     1.138      2.209   0.01609714  19.9185        128
 4.19   0.0000   1001.5298   1555.4829     3453.167      43.5214  54.97     1.346     1.330      2.195   0.01607893  19.2045        129
 4.71   0.0000   1597.6036    654.7847     621.4985      43.5214   1.75     1.659     1.434      2.401   0.01383611  21.0664        130
 5.16   0.0000   1594.7568    374.1190     867.0133      43.5214  42.74     1.307     1.027      1.790   0.01554717  20.7049        131
 4.05   0.0000   1584.9181   1108.9316     3739.025      43.5214 -15.59     1.433     1.357      2.160   0.01608257  19.1181        132
 6.78   0.0000   1585.9497   1069.5099     909.6747      43.5214 -88.96     0.783     0.500      2.224   0.01608439  20.6528        133
 3.60   0.0000   1541.8564    135.1745     10097.39      43.5214  54.68     1.663     1.623      2.099   0.01609532  18.0395        134
 8.74   0.0000   1519.3268     85.3294     737.2855      43.5214 -44.88     0.573     0.336      1.825    0.0160771  20.8809        135
 4.79   0.0000   1514.6519    483.6263     1190.071      43.5214 -43.74     1.049     0.951      2.272   0.01609714  20.3611        136
 4.90   0.0000    912.4185   1001.2366     1259.352      43.5214  73.44     0.989     0.957      2.096   0.01609532  20.2996        137
 3.50   0.0000    900.4997    302.8331     17644.89      43.5214 -64.19     1.794     1.787      2.183   0.01607528  17.4335        138
