#   1 KRON_RADIUS            Kron apertures in units of A or B                         
#   2 MAGERR_APER            RMS error vector for fixed aperture mag.                   [mag]
#   3 Y_IMAGE                Object position along y                                    [pixel]
#   4 X_IMAGE                Object position along x                                    [pixel]
#   5 THETA_IMAGE            Position angle (CCW/x)                                     [deg]
#   6 FLUX_APER              Flux vector within fixed circular aperture(s)              [count]
#   7 A_IMAGE                Profile RMS along major axis                               [pixel]
#   8 THRESHOLD              Detection threshold above background                       [count]
#   9 B_IMAGE                Profile RMS along minor axis                               [pixel]
#  10 FLUX_RADIUS            Fraction-of-light radii                                    [pixel]
#  11 FLUXERR_APER           RMS error vector for aperture flux(es)                     [count]
#  12 MAG_APER               Fixed aperture magnitude vector                            [mag]
#  13 NUMBER                 Running object number                                     
 4.37   0.0006     53.2492     63.7991   2.40     152067.2     4.357           15     3.984      9.770     83.67826  15.0949          1
 4.10   0.0036     16.4718    985.1567 -88.07     25036.37     3.735           15     1.698      6.645     83.59312  17.0536          2
 3.97   0.0045     17.9865     91.3714 -53.26     20379.36     1.570           15     1.488      2.765     83.64043  17.2770          3
 3.50   0.0017     14.5972   1445.8169 -80.07     52868.51     1.744           15     1.672      2.746     83.59312  16.2420          4
 6.99   0.0339     17.1821    384.7968 -45.25     2674.776     0.753           15     0.567      2.569     83.59312  19.4818          5
 5.12   0.0206     24.7609    367.2383  39.82     4405.505     1.062           15     1.038      2.812     83.64989  18.9400          6
 3.50   0.0004     59.7664   1078.5476  80.39     241700.9     2.148           15     2.001      2.938     83.64989  14.5918          7
 3.50   0.0004     80.0907    537.6920 -71.63     231883.2     2.048           15     1.992      2.833     83.53632  14.6368          8
 4.34   0.0108     75.2280    128.2098 -42.79     8405.816     1.334           15     1.292      2.652     83.63097  18.2386          9
 8.75   0.0421     82.4950    421.5017 -44.79     2153.476     0.501           15     0.499      3.009     83.53632  19.7171         10
 3.50   0.0003    121.7744    789.2222 -67.47     344568.6     2.120           15     2.061      2.866     83.64043  14.2068         11
 8.24   0.0195     90.7881    376.9991  89.85     4644.998     0.946           15     0.770      4.548     83.61205  18.8825         12
 4.37   0.0071     96.5909     56.2589 -21.93     12724.88     1.408           15     1.318      2.838     83.67826  17.7884         13
 7.57   0.0307     98.0005    453.0040 -43.86     2959.374     0.898           15     0.535      3.397     83.62151  19.3720         14
 3.50   0.0005    162.2509   1468.3955 -79.64       195295     2.033           15     1.946      2.852     83.67826  14.8233         15
 3.61   0.0021    170.2679    877.3882 -62.71      43940.9     1.723           15     1.681      2.777     83.66881  16.4428         16
 5.50   0.0229    164.9924   1445.5902 -89.97     3955.219     1.087           15     0.949      2.878     83.58366  19.0571         17
 5.22   0.0346    166.6618    104.3994 -43.06     2629.349     0.998           15     0.873      2.426     83.67826  19.5004         18
 5.60   0.0165    192.6395   1350.5353  80.76     5496.446     1.088           15     1.003      2.986     83.63097  18.6998         19
 5.55   0.0048    210.6582    827.6677  -6.34     18948.16     2.747           15     1.712      7.720     83.60258  17.3561         20
 4.24   0.0099    206.6921    549.1891  64.24     9127.165     1.319           15     1.299      2.649     83.60258  18.1492         21
 4.20   0.0100    212.1993   1306.1979 -78.19     9054.875     1.352           15     1.291      2.668     83.64043  18.1578         22
 6.11   0.0055    230.0650    562.1762 -37.98     16522.81     2.561           15     2.306      8.689     83.64043  17.5048         23
 7.21   0.0334    210.8688    684.8645 -46.17     2718.405     0.834           15     0.678      3.293     83.57419  19.4642         24
 3.91   0.0087    223.9686   1226.1376  86.77     10394.05     1.401           15     1.322      2.608     83.62151  18.0080         25
 3.50   0.0002    259.7245    997.4921 -72.06     597359.7     2.227           15     2.157      2.897     83.56472  13.6094         26
 5.13   0.0256    222.5072    774.9922  -1.68     3547.148     1.082           15     0.952      2.531     83.60258  19.1753         27
 3.50   0.0002    265.8916     67.6592 -62.74     441284.3     2.148           15     2.101      2.824     83.57419  13.9382         28
 6.33   0.0125    244.0010    112.9882 -80.50     7242.143     1.555           15     1.218      5.572     83.61205  18.4003         29
 7.80   0.0309    239.2809    838.9832  -2.94     2944.003     0.742           15     0.683      3.774     83.64043  19.3777         30
 5.14   0.0051    255.4213    613.0656 -35.57     17903.58     2.017           15     1.708      5.263     83.64043  17.4177         31
 8.38   0.0285    250.5010    107.5009 -45.00     3187.343     0.502           15     0.498      2.785     83.53632  19.2914         32
 3.50   0.0009    287.5008   1486.5306 -70.04     104257.3     1.912           15     1.832      2.850     83.57419  15.5047         33
 3.73   0.0039    281.8641   1522.4325 -68.81     23025.25     1.578           15     1.530      2.714     83.62151  17.1445         34
 8.46   0.0390    270.6871   1273.6602 -43.74      2325.57     0.571           15     0.336      2.616     83.57419  19.6337         35
 3.50   0.0012    303.1224    201.8259 -70.31     76322.78     1.814           15     1.787      2.742     83.62151  15.8434         36
 6.55   0.0201    293.4106   1475.6356 -46.77     4517.438     0.995           15     0.875      3.739     83.64043  18.9128         37
 5.55   0.0218    302.2738    563.5635 -15.20     4161.462     0.984           15     0.953      2.880     83.60258  19.0019         38
 3.50   0.0018    322.0353    697.3682 -75.04     50681.52     1.742           15     1.712      2.726     83.63097  16.2879         39
 5.50   0.0093    327.5102    595.5055 -26.45     9793.231     1.401           15     1.390      4.431     83.53632  18.0727         40
 8.79   0.0213    321.9905    641.4991 -88.31      4255.63     0.808           15     0.500      3.947     83.58366  18.9776         41
 6.64   0.0416    332.0735     93.3000  80.04     2178.169     0.732           15     0.672      2.450     83.53632  19.7048         42
 4.78   0.0188    350.0340     54.8757 -37.01     4837.639     1.148           15     1.130      2.728     83.60258  18.8384         43
 3.67   0.0017    368.1146    761.1957 -69.51     52430.03     1.768           15     1.698      2.756     83.61205  16.2510         44
 4.45   0.0097    361.2217   1500.5074 -58.49     9351.421     1.322           15     1.301      2.863     83.59312  18.1228         45
 6.16   0.0403    360.5319   1034.0068 -89.68     2254.111     0.799           15     0.704      2.403     83.66881  19.6676         46
 3.50   0.0004    395.1687    231.5045 -65.60     256526.8     2.053           15     2.012      2.824     83.57419  14.5272         47
 3.55   0.0025    397.0243   1461.2343  87.70     36497.84     1.652           15     1.608      2.728     83.63097  16.6443         48
 3.53   0.0022    398.1424    354.6748 -35.74     41605.25     1.702           15     1.657      2.715     83.58366  16.5021         49
 4.16   0.0105    393.7128   1088.7422 -66.82     8611.081     1.309           15     1.244      2.639     83.58366  18.2124         50
 8.97   0.0244    396.6698    626.6751 -45.24     3719.422     0.572           15     0.336      3.109     83.55525  19.1238         51
 8.03   0.0599    412.4884      1.4985 -89.99     1156.711     1.100           15     0.500      4.976      63.8453  20.3919         52
 3.50   0.0011    437.9201    252.1413 -80.22     83646.69     1.851           15     1.804      2.761     83.59312  15.7439         53
 6.20   0.0184    420.8461    159.1396  44.41     4941.651     1.256           15     1.064      4.115     83.61205  18.8153         54
 3.50   0.0001    461.0544    807.6869 -69.40     724712.9     2.242           15     2.186      2.896     83.57419  13.3996         55
 4.56   0.0139    432.9372   1422.0659 -49.26     6511.319     1.190           15     1.123      2.720     83.57419  18.5158         56
 8.00   0.0005    426.3267    433.6627  44.53       165011     0.576           15     0.334      3.344     83.56472  15.0062         57
 6.07   0.0347    434.0292    151.0296  47.60     2613.892     0.785           15     0.783      2.730     83.62151  19.5068         58
 3.82   0.0034    450.2974     21.4172 -76.10     26528.78     1.607           15     1.557      2.744     83.60258  16.9907         59
 6.13   0.0203    445.2569    122.4241 -59.88      4472.23     1.150           15     0.955      3.529     83.64043  18.9237         60
 5.79   0.0329    440.0038    305.7815  -0.69     2756.785     0.903           15     0.755      2.455     83.60258  19.4490         61
 5.50   0.0041    467.7160    850.4396  22.49     22246.73     6.214           15     1.752     13.860     83.61205  17.1818         62
 3.76   0.0030    457.8175     34.6510 -46.81     29856.66     1.641           15     1.575      2.722     83.64043  16.8624         63
 4.39   0.0096    463.6512    468.6115  74.13     9510.299     1.350           15     1.322      2.872     83.65935  18.1045         64
 6.04   0.0305    461.0798   1096.3517  15.46      2975.52     0.998           15     0.748      2.738     83.58366  19.3661         65
 3.99   0.0077    472.0443    734.9708 -52.27      11785.5     1.390           15     1.378      2.665     83.66881  17.8716         66
 4.61   0.0110    471.3667    254.3258 -43.81     8261.932     1.344           15     1.252      2.811     83.60258  18.2573         67
 3.84   0.0060    477.9377    923.1066  72.21     15086.82     1.452           15     1.428      2.611     83.58366  17.6035         68
 4.69   0.0160    477.4910   1276.5251 -45.49     5682.746     1.092           15     0.799      2.799     83.56472  18.6636         69
 4.37   0.0146    484.0191   1070.6996  -6.91     6214.439     1.210           15     1.175      2.512     83.56472  18.5665         70
 6.01   0.0079    496.1053     83.1115  50.20     11415.69     1.884           15     1.591      5.933     83.53632  17.9062         71
 8.63   0.0256    488.4909    839.6686 -89.77     3544.457     0.943           15     0.471      4.582     83.56472  19.1761         72
 6.13   0.0084    495.5521   1186.8837 -11.66     10796.53     2.280           15     1.434      6.553     83.58366  17.9668         73
 4.85   0.0234    502.0215    863.7155  89.92      3881.65     1.068           15     1.028      2.600     83.62151  19.0775         74
 6.51   0.0136    504.1061    762.9114 -42.71     6655.462     1.291           15     1.185      4.777     83.54578  18.4921         75
 5.27   0.0067    515.3171   1461.1370  25.70     13574.34     3.247           15     1.350      7.403     83.57419  17.7182         76
 7.27   0.0228    509.9713    165.8056  -2.30      3983.52     0.919           15     0.755      4.281     83.63097  19.0493         77
 5.34   0.0238    513.7430   1179.4207 -16.38     3823.229     0.975           15     0.950      2.607     83.64989  19.0939         78
 6.64   0.0317    519.0310    641.9885 -40.84     2864.064     0.798           15     0.789      3.206     83.64989  19.4075         79
 4.34   0.0102    540.2678    999.9679 -83.58     8905.864     1.315           15     1.273      2.663     83.63097  18.1758         80
 4.08   0.0074    558.9242   1041.8359  61.82     12280.08     1.412           15     1.386      2.750     83.60258  17.8270         81
 5.05   0.0104    571.2046     45.9520  48.68     8761.794     1.777           15     1.283      4.189     83.67826  18.1935         82
 3.50   0.0018    582.1641    319.2921 -56.60     50049.04     1.742           15     1.715      2.741     83.57419  16.3015         83
 3.50   0.0018    580.6515    145.0341 -74.15     50125.02     1.737           15     1.686      2.711     83.64989  16.2999         84
 5.96   0.0111    571.4419   1447.9792  26.56     8178.914     1.708           15     1.350      5.339     83.64043  18.2683         85
 7.61   0.0395    564.7873    139.5964  71.59     2298.729     0.738           15     0.455      2.598     83.58366  19.6463         86
 5.04   0.0037    596.6771    782.6903 -64.70     24445.94     2.798           15     2.492      7.899     83.56472  17.0795         87
 7.81   0.0304    576.1833   1001.8245 -44.97     2987.631     0.763           15     0.571      3.513     83.60258  19.3617         88
 5.26   0.0267    584.5250     76.1989 -81.79     3401.267     0.982           15     0.943      2.581     83.64043  19.2209         89
 4.92   0.0213    999.8708   1273.8196 -45.51     4269.319     1.158           15     1.029      2.628     83.66881  18.9741         90
 6.35   0.0165   1597.6212    654.8572 -17.19     4745.068     1.232           15     0.990      3.935     71.87827  18.8594         91
 7.06   0.0290   1594.8591    374.1336  45.09     3018.538     0.838           15     0.672      3.341     80.55656  19.3505         92
 5.97   0.0169   1546.0352    863.5189  67.46      5385.44     1.273           15     0.964      3.799     83.61205  18.7219         93
 4.27   0.0070   1542.5936    654.7667  -9.51     12979.92     1.395           15     1.374      2.773     83.64043  17.7668         94
 3.94   0.0051   1541.7943    135.1802  72.40     17893.27     1.503           15     1.450      2.679     83.61205  17.4183         95
 3.54   0.0020   1038.6554    525.4937 -61.89     44531.18     1.726           15     1.694      2.776     83.57419  16.4283         96
 3.50   0.0009   1025.7018   1380.0769 -83.27      99337.7     1.909           15     1.810      2.811     83.54578  15.5572         97
 6.68   0.0127    986.7147    454.0607  85.30     7161.763     1.295           15     1.222      5.444     83.57419  18.4124         98
 5.94   0.0170    980.9628    797.9971 -77.02     5332.979     1.187           15     1.170      4.188     83.62151  18.7326         99
 7.35   0.0278    978.1801    452.8186 -45.70     3263.797     0.753           15     0.569      3.311     83.62151  19.2657        100
 6.87   0.0392    965.0379    416.4961 -89.77     2316.749     0.784           15     0.500      2.387     83.55525  19.6378        101
 6.93   0.0214    950.7533    654.4555  -2.99     4242.283     1.002           15     0.989      4.214     83.61205  18.9810        102
 6.65   0.0435    947.8222    445.1938 -45.44     2087.799     0.748           15     0.567      2.633     83.61205  19.7508        103
 4.10   0.0094    939.1708   1067.2499 -76.19     9623.285     1.385           15     1.285      2.635     83.64989  18.0917        104
 9.23   0.0240    938.4916    516.4865  45.39     3782.783     0.504           15     0.496      3.024     83.53632  19.1055        105
 4.76   0.0162    928.2906   1322.6356  66.79     5586.211     1.130           15     1.104      2.752     83.58366  18.6822        106
 4.70   0.0225    912.8324    838.5927 -75.27     4038.863     1.130           15     0.955      2.529     83.63097  19.0344        107
 6.07   0.0402    912.1641   1001.1413 -44.58     2258.872     0.815           15     0.676      2.305     83.63097  19.6653        108
 3.59   0.0027    900.3816    302.9015 -56.98     33195.35     1.642           15     1.617      2.719     83.59312  16.7473        109
 5.87   0.0120    896.1433    538.3982  -0.40      7570.15     1.478           15     1.256      4.607     83.68771  18.3522        110
 8.36   0.0468    893.5396   1426.4816 -31.55     1938.098     0.500           15     0.498      2.662     83.56472  19.8316        111
 6.99   0.0205    888.6398    325.7913  22.54     4441.478     1.161           15     0.889      4.308     83.64043  18.9312        112
 3.50   0.0002    880.1780   1592.6589 -81.56     582815.8     2.228           15     2.106      2.913     83.64989  13.6362        113
 4.88   0.0207    885.8364   1500.2797  67.33      4387.45     1.118           15     1.017      2.516     83.60258  18.9445        114
 5.37   0.0375    877.6447    961.0855 -75.72     2422.738     0.989           15     0.750      2.403     83.59312  19.5892        115
 4.40   0.0066    869.4243   1103.7172 -46.36     13745.53     1.752           15     1.556      3.762     83.61205  17.7046        116
 6.08   0.0173    867.9976    939.9743  38.43     5256.248     1.448           15     1.024      4.130     83.61205  18.7483        117
 5.62   0.0259    858.4358   1339.6268 -53.19     3506.123     1.012           15     0.878      3.090     83.63097  19.1879        118
 5.75   0.0364    844.9875   1063.9880 -44.90     2496.787     0.786           15     0.780      2.441     83.60258  19.5565        119
 5.10   0.0154    843.2435   1106.2429  31.06     5893.211     1.322           15     1.115      3.446     83.63097  18.6241        120
 4.52   0.0119    836.5932    298.8609 -78.07     7618.809     1.285           15     1.208      2.710     83.68771  18.3453        121
 7.92   0.0525    835.5115    819.4685 -54.77     1729.892     0.501           15     0.498      2.339     83.55525  19.9550        122
 3.61   0.0027    822.9625    654.4772 -76.30     33963.91     1.658           15     1.601      2.734     83.60258  16.7225        123
 3.53   0.0029    803.0191   1378.7842 -73.81     30858.89     1.658           15     1.602      2.726     83.62151  16.8265        124
 3.50   0.0010    798.4828    695.7690 -87.55     89819.12     2.515           15     1.794      3.756     83.61205  15.6666        125
 4.21   0.0062    800.7248     41.2087 -49.92      14657.9     1.443           15     1.391      2.795     83.65935  17.6348        126
 5.30   0.0070    774.3524   1427.3524 -89.60     12971.32     2.334           15     1.592      6.206     83.65935  17.7675        127
 4.51   0.0116    742.8000    556.4390  -7.66     7822.693     1.279           15     1.255      2.807     83.64043  18.3166        128
 5.55   0.0326    738.1602   1158.1676 -41.61     2786.351     0.886           15     0.857      2.441     83.64989  19.4374        129
 5.80   0.0282    736.1319    649.8373  41.46     3221.646     0.881           15     0.858      2.588     83.62151  19.2798        130
 3.50   0.0003    726.5585    848.5452 -74.43       347358     2.114           15     2.060      2.868     83.61205  14.1981        131
 4.62   0.0166    727.3411   1178.3016 -47.28     5466.276     1.129           15     1.099      2.674     83.55525  18.7058        132
 7.58   0.0453    721.3962   1395.1848  18.81      2005.17     0.753           15     0.449      2.845     83.59312  19.7946        133
 4.23   0.0130    715.8390    808.4616 -12.40     7007.381     1.271           15     1.255      2.667     83.62151  18.4361        134
 4.40   0.0130    708.9507   1163.8972 -48.85     6954.927     1.226           15     1.164      2.614     83.51737  18.4443        135
 4.87   0.0108    704.2919   1339.2717 -44.42     8411.123     1.431           15     1.288      4.053     83.57419  18.2379        136
 4.01   0.0071    702.7967    952.6184 -44.98      12850.7     1.414           15     1.390      2.792     83.59312  17.7777        137
 9.02   0.0269    699.2294    582.9828   0.69     3371.753     0.708           15     0.420      3.816     83.63097  19.2304        138
