#   1 KRON_RADIUS            Kron apertures in units of A or B                         
#   2 MAGERR_APER            RMS error vector for fixed aperture mag.                   [mag]
#   3 Y_IMAGE                Object position along y                                    [pixel]
#   4 X_IMAGE                Object position along x                                    [pixel]
#   5 FLUX_APER              Flux vector within fixed circular aperture(s)              [count]
#   6 THRESHOLD              Detection threshold above background                       [count]
#   7 THETA_IMAGE            Position angle (CCW/x)                                     [deg]
#   8 A_IMAGE                Profile RMS along major axis                               [pixel]
#   9 B_IMAGE                Profile RMS along minor axis                               [pixel]
#  10 FLUX_RADIUS            Fraction-of-light radii                                    [pixel]
#  11 FLUXERR_APER           RMS error vector for aperture flux(es)                     [count]
#  12 MAG_APER               Fixed aperture magnitude vector                            [mag]
#  13 NUMBER                 Running object number                                     
 4.23   0.0000     53.2652     63.6543     60312.23      43.5214   3.17     5.181     4.630      3.122  0.001938237  16.0990          1
 3.95   0.0000     16.5149    985.0804     9660.712      43.5214 -88.61     4.203     1.941      2.416  0.001937578  18.0875          2
 4.06   0.0000     18.0504     91.3141      6779.17      43.5214   0.42     1.768     1.716      1.637  0.001938017  18.4721          3
 3.50   0.0000     14.6167   1445.7477     16082.91      43.5214 -47.82     1.890     1.819      1.598  0.001939553  17.5341          4
 8.12   0.0000     10.2946   1183.6542     384.4174      43.5214  42.42     0.565     0.339      1.428  0.001937578  21.5880          5
 7.36   0.0000      4.2259    145.0241     521.9897      43.5214  89.83     0.957     0.768      2.662  0.001737092  21.2558          6
 6.64   0.0000     17.2495    384.5071     764.4746      43.5214  19.99     0.993     0.952      1.596  0.001937359  20.8416          7
 5.14   0.0000     24.7971    367.2085     1768.182      43.5214  13.81     1.305     1.234      1.441  0.001938237  19.9312          8
 3.50   0.0000     59.7850   1078.4766     64059.12      43.5214  77.02     2.287     2.159      1.787  0.001940211  16.0335          9
 8.57   0.0000     23.7800    383.3999     586.8683      43.5214 -71.85     0.755     0.452      2.030  0.001938895  21.1286         10
 6.41   0.0000     33.9023   1110.1802     906.6725      43.5214  68.24     1.657     0.778      1.905  0.001938017  20.6564         11
 7.88   0.0000     33.3076    326.9492       623.38      43.5214  -6.92     0.747     0.677      1.916  0.001937798  21.0631         12
 5.98   0.0000     37.8655   1521.1591     607.8833      43.5214  46.72     0.834     0.669      1.569  0.001938895  21.0904         13
 7.05   0.0000     38.8750   1170.6508     611.6152      43.5214 -19.52     0.923     0.691      1.584  0.001937578  21.0838         14
 5.87   0.0000     42.4605    915.4996     792.3325      43.5214 -77.10     0.913     0.907      1.578  0.001937359  20.8027         15
 3.50   0.0000     80.1536    537.6561     64470.52      43.5214 -59.56     2.145     2.122      1.684  0.001938676  16.0266         16
 9.02   0.0000     44.6655    440.6699     713.2856      43.5214 -45.19     0.576     0.334      1.582  0.001937798  20.9168         17
 4.26   0.0000     75.2162    128.0142      3515.13      43.5214  -5.75     1.516     1.469      1.655  0.001938895  19.1851         18
 6.64   0.0000     82.2787    421.5101     773.7361      43.5214 -15.66     0.994     0.986      1.619  0.001937359  20.8285         19
 3.50   0.0000    121.8120    789.2006     97300.32      43.5214 -62.81     2.230     2.179      1.671  0.001938895  15.5797         20
 6.02   0.0000     90.7295    376.9918     1942.255      43.5214   4.47     1.628     1.442      2.355  0.001939772  19.8292         21
 4.42   0.0000     96.6151     56.2576     4852.449      43.5214 -38.95     1.639     1.566      1.503  0.001939114  18.8351         22
 6.10   0.0000     98.0585    452.9797     1200.583      43.5214 -14.82     1.454     1.005      1.954  0.001939553  20.3515         23
 7.39   0.0000     91.4945    495.9650     609.6012      43.5214  -1.40     0.788     0.500      1.545  0.001937578  21.0874         24
 3.50   0.0000    162.2989   1468.3301      50362.5      43.5214 -48.48     2.111     2.074      1.682  0.001937798  16.2947         25
 6.85   0.0000    131.2865    418.0175     579.4721      43.5214   5.64     0.729     0.681      1.558  0.001938676  21.1424         26
 3.55   0.0000    170.2996    877.3505     12343.15      43.5214  -8.96     1.882     1.865      1.679  0.001936261  17.8214         27
 8.52   0.0000    151.4999   1280.4825     420.7176      43.5214 -47.88     0.501     0.498      1.676   0.00193648  21.4900         28
 5.51   0.0000    164.9741   1445.6677     1580.171      43.5214  17.35     1.303     1.186      1.679  0.001939114  20.0532         29
 4.82   0.0000    166.8505    104.4303      1193.93      43.5214 -46.35     1.196     1.124      1.427  0.001939553  20.3576         30
 6.42   0.0000    169.3397   1368.8977     591.9376      43.5214  68.06     0.910     0.689      1.677  0.001937359  21.1193         31
 7.68   0.0000    180.3316    574.9897     716.2031      43.5214  53.18     1.039     0.643      1.836  0.001939992  20.9124         32
 7.49   0.0000    186.6387   1354.8976     790.3168      43.5214  75.59     1.045     0.753      1.597  0.001937139  20.8055         33
 5.30   0.0000    192.6023   1350.5554     2071.257      43.5214 -19.15     1.368     1.305      1.697  0.001939992  19.7594         34
 4.77   0.0000    210.7202    827.6749     7256.338      43.5214  -5.78     3.810     2.091      2.662  0.001938017  18.3982         35
 4.14   0.0000    206.7225    549.0807     3764.792      43.5214   3.37     1.545     1.484      1.484  0.001938237  19.1106         36
 4.19   0.0000    212.1664   1306.1005     3693.065      43.5214 -64.54     1.516     1.487      1.695    0.0019367  19.1315         37
 5.52   0.0000    230.1494    562.2775     6952.961      43.5214 -37.31     3.231     3.004      3.996  0.001937578  18.4446         38
 5.76   0.0000    210.8939    684.8484     1080.702      43.5214 -66.39     1.218     1.115      1.481  0.001937359  20.4657         39
 3.50   0.0000    259.7588    997.4791       172267      43.5214 -48.81     2.331     2.263      1.656  0.001938456  14.9595         40
 3.92   0.0000    223.9121   1226.0618     4087.261      43.5214  25.89     1.523     1.479      1.698  0.001937798  19.0214         41
 4.86   0.0000    222.6267    774.9695     1571.522      43.5214  81.57     1.224     1.191      1.470  0.001939114  20.0592         42
 3.50   0.0000    265.9002     67.6173     106443.4      43.5214 -49.31     2.268     2.237      1.671  0.001938017  15.4822         43
 5.52   0.0000    243.9732    112.8913     2400.411      43.5214 -88.19     1.951     1.539      1.748  0.001938237  19.5993         44
 4.81   0.0000    255.4885    613.0098     6671.492      43.5214 -41.01     2.436     2.028      1.856  0.001938895  18.4894         45
 6.52   0.0000    239.3535    838.8231     1046.337      43.5214  -5.84     1.203     1.102      1.678  0.001939334  20.5008         46
 7.18   0.0000    250.5180    107.4840     986.6168      43.5214 -42.78     1.108     0.852      1.681  0.001937578  20.5646         47
 3.50   0.0000    287.5196   1486.4733     29422.85      43.5214 -43.97     2.033     1.992      1.656  0.001937798  16.8783         48
 3.66   0.0000    281.9236   1522.4003     7286.217      43.5214   3.77     1.701     1.668      1.711  0.001939114  18.3937         49
 6.46   0.0000    270.7727   1273.6278     774.1951      43.5214  16.49     1.000     0.849      1.626  0.001939334  20.8279         50
 3.50   0.0000    303.1506    201.7659     21800.84      43.5214 -78.11     1.968     1.942      1.720  0.001939114  17.2038         51
 6.27   0.0000    293.2967   1475.8354     1060.166      43.5214 -33.66     1.250     1.086      1.825   0.00193692  20.4866         52
 4.64   0.0000    302.2875    563.6751     1563.416      43.5214  31.81     1.325     1.283      1.630  0.001937359  20.0648         53
 3.50   0.0000    322.0853    697.3419     15008.38      43.5214   1.78     1.882     1.848      1.675  0.001938017  17.6092         54
 7.64   0.0000    308.7069     85.2985     783.5019      43.5214  45.78     0.969     0.767      1.802  0.001937139  20.8149         55
 6.05   0.0000    321.9905    641.4783     1797.386      43.5214 -64.00     1.799     1.232      2.028  0.001939334  19.9134         56
 5.16   0.0000    327.5369    595.4523     3329.773      43.5214 -52.10     1.728     1.694      1.698  0.001938237  19.2440         57
 6.07   0.0000    329.2517   1546.0168     697.3808      43.5214 -87.78     0.913     0.756      1.721  0.001939553  20.9413         58
 5.83   0.0000    332.2679     93.4347     1036.464      43.5214  20.40     0.992     0.948      1.661  0.001939114  20.5111         59
 4.78   0.0000    350.1319     54.7084     1995.642      43.5214  -8.51     1.366     1.298      1.678  0.001937578  19.7998         60
 3.50   0.0000    368.1670    761.1217      14305.5      43.5214 -26.12     1.940     1.871      1.703  0.001938676  17.6612         61
 4.02   0.0000    361.1491   1500.4037     3798.219      43.5214 -15.08     1.586     1.464      1.775  0.001940211  19.1010         62
 3.50   0.0000    395.2009    231.4691     72625.17      43.5214 -63.05     2.184     2.143      1.675  0.001939772  15.8973         63
 5.78   0.0000    360.5269   1034.0070     1153.474      43.5214  -1.40     1.111     0.957      1.659  0.001939772  20.3950         64
 6.91   0.0000    375.4792    754.0627     1145.104      43.5214  56.22     1.715     0.961      2.253  0.001937578  20.4029         65
 7.68   0.0000    370.3091     71.9499     743.3159      43.5214 -10.89     0.743     0.672      1.755  0.001938237  20.8721         66
 6.47   0.0000    373.4826   1083.8826     836.0784      43.5214 -17.84     1.100     0.990      1.714  0.001937578  20.7444         67
 6.41   0.0002    380.6161      1.4882     6.472413      43.5214 -89.79     1.601     0.500      3.002  0.001481502  26.0223         68
 3.50   0.0000    397.0519   1461.2017     10669.92      43.5214 -44.85     1.804     1.797      1.726  0.001940211  17.9796         69
 3.50   0.0000    398.1799    354.6261     12137.89      43.5214 -13.53     1.890     1.844      1.726  0.001938895  17.8396         70
 8.09   0.0000    375.6552     87.2937     567.6097      43.5214  47.61     0.564     0.339      1.358  0.001937798  21.1649         71
 6.71   0.0000    380.1594    125.8447     641.2276      43.5214  44.65     0.818     0.680      1.834  0.001939334  21.0325         72
 4.22   0.0000    393.8183   1088.7736     3439.798      43.5214 -35.06     1.516     1.449      1.566  0.001939114  19.2087         73
 8.89   0.0000    382.4900     67.5055     460.9881      43.5214 -44.69     0.503     0.497      1.691   0.00193692  21.3908         74
 8.07   0.0000    388.6902   1195.3347     356.7252      43.5214  43.77     0.567     0.338      1.868  0.001938237  21.6692         75
 6.14   0.0000    412.0432      1.7727     49.27248      43.5214  90.00     2.505     0.701      4.536  0.001512473  23.8185         76
 7.90   0.0000    396.8768    626.5975     1326.886      43.5214 -73.71     1.239     0.985      2.362  0.001939114  20.2429         77
 8.16   0.0000    403.6928    526.4366     716.9569      43.5214  81.17     1.023     0.476      1.770  0.001937798  20.9113         78
 7.54   0.0000    407.0518    282.4902     489.3507      43.5214 -88.59     0.787     0.500      1.918  0.001938237  21.3259         79
 3.50   0.0000    437.9478    252.1072     24522.26      43.5214 -87.21     2.006     1.974      1.654  0.001937798  17.0761         80
 3.50   0.0000    461.0704    807.6703     183734.8      43.5214 -68.51     2.341     2.304      1.690    0.0019367  14.8895         81
 5.83   0.0000    420.9021    159.0900      1753.78      43.5214  37.62     1.694     1.421      1.926   0.00193692  19.9401         82
 7.67   0.0000    419.5386   1580.4929     536.1786      43.5214  40.47     0.504     0.495      1.677  0.001937798  21.2267         83
 4.17   0.0000    432.9492   1422.0629     2752.368      43.5214   6.85     1.427     1.396      1.650  0.001938237  19.4507         84
 6.72   0.0000    426.5748   1179.2787     898.6993      43.5214  26.35     1.188     0.957      1.920  0.001938895  20.6660         85
 6.42   0.0000    426.8329    433.0970     69730.69      43.5214  -3.27     2.183     0.735      3.781  0.001937359  15.9414         86
 5.15   0.0000    434.2586    151.1154     1007.349      43.5214 -20.05     1.138     1.034      1.507  0.001938017  20.5420         87
 3.88   0.0000    450.3392     21.3603     7923.458      43.5214 -27.47     1.777     1.769      1.640  0.001939114  18.3027         88
 5.07   0.0000    467.7993    850.4810      8791.95      43.5214  22.59     7.403     2.054      4.940  0.001939114  18.1898         89
 9.05   0.0000    430.6650    719.3185      1090.62      43.5214  45.76     0.572     0.336      1.943  0.001937359  20.4558         90
 4.48   0.0000    440.0043    305.8401      1245.81      43.5214  22.45     1.160     1.136      1.689  0.001939114  20.3114         91
 5.42   0.0000    445.2589    122.3780     1719.038      43.5214 -23.52     1.401     1.309      1.584  0.001939553  19.9618         92
 3.80   0.0000    457.8408     34.5939     9943.848      43.5214 -30.83     1.779     1.767      1.590  0.001939334  18.0561         93
 8.05   0.0000    443.6886    655.3237     765.0509      43.5214  44.36     0.563     0.340      1.893  0.001937139  20.8408         94
 4.32   0.0000    463.6414    468.6490      3804.25      43.5214  70.99     1.619     1.558      1.673  0.001939553  19.0993         95
 6.24   0.0000    452.9206   1533.0249     646.7735      43.5214 -31.03     0.792     0.774      1.398  0.001938895  21.0231         96
 5.22   0.0000    460.9918   1096.1410      1310.05      43.5214  47.71     1.191     1.080      1.785  0.001940211  20.2568         97
 4.60   0.0000    471.3581    254.2742     3230.689      43.5214 -79.51     1.510     1.439      1.615  0.001938456  19.2768         98
 4.03   0.0000    472.1380    734.9207     4482.986      43.5214  75.27     1.566     1.511      1.670  0.001937578  18.9211         99
 7.71   0.0000    461.8358    724.7247     744.5255      43.5214 -20.12     0.949     0.683      1.595  0.001938456  20.8703        100
 3.70   0.0000    477.9271    923.0840     5549.256      43.5214 -28.67     1.679     1.612      1.677  0.001937578  18.6894        101
 4.34   0.0000    477.2791   1276.4363     2351.259      43.5214 -44.53     1.334     0.920      2.451  0.001938456  19.6217        102
 5.84   0.0000    488.9431    839.6031     1325.496      43.5214  87.10     2.059     0.959      1.694  0.001940211  20.2441        103
 4.14   0.0000    484.0388   1070.6680     3009.571      43.5214 -80.82     1.429     1.400      1.750  0.001938895  19.3537        104
 7.10   0.0000    475.9789   1168.4807     492.5678      43.5214  89.68     0.781     0.500      1.663  0.001939114  21.3188        105
 5.40   0.0000    496.2654     82.9187     4375.293      43.5214  66.13     2.311     2.046      2.474  0.001937359  18.9475        106
 6.87   0.0000    478.8629    682.8434     749.1176      43.5214 -46.10     0.819     0.679      1.598  0.001938456  20.8636        107
 5.12   0.0000    495.7248   1186.8407     4341.458      43.5214 -15.71     2.996     1.931      2.848  0.001938456  18.9559        108
 5.26   0.0000    504.0796    762.8668     2121.781      43.5214 -10.71     1.688     1.646      2.056  0.001937359  19.7332        109
 4.77   0.0000    502.0138    863.8067     1696.617      43.5214  64.62     1.201     1.192      1.734  0.001937798  19.9760        110
 4.57   0.0000    515.3623   1461.0657     5149.783      43.5214  23.93     4.115     1.649      2.901  0.001939114  18.7705        111
 6.08   0.0000    498.0054    366.2516     702.1962      43.5214   0.37     0.926     0.749      1.692  0.001940211  20.9339        112
 6.08   0.0000    509.9191    164.8152     1480.507      43.5214  -5.95     1.820     1.073      2.021  0.001939334  20.1240        113
 4.83   0.0000    513.8598   1179.1876     1633.048      43.5214  24.06     1.285     1.178      1.483  0.001939334  20.0175        114
 5.52   0.0000    519.1540    641.9484     1052.458      43.5214  22.36     1.200     1.120      1.686  0.001939772  20.4945        115
 6.45   0.0000    518.1915   1519.1722     580.6447      43.5214  45.74     0.761     0.567      1.798  0.001939114  21.1402        116
 4.09   0.0000    540.2067    999.9378     3755.782      43.5214  61.15     1.534     1.490      1.737  0.001939992  19.1132        117
 6.53   0.0000    536.3547    404.5305     819.7259      43.5214  38.93     1.195     0.786      1.734  0.001938237  20.7658        118
 3.90   0.0000    558.9035   1041.7982      4523.81      43.5214   6.20     1.633     1.563      1.727  0.001938676  18.9112        119
 4.74   0.0000    571.3472     45.9143     3419.703      43.5214  46.17     2.084     1.522      1.824  0.001937798  19.2150        120
 5.98   0.0000    555.8228    778.8107     506.9648      43.5214  44.57     0.756     0.567      1.588  0.001938676  21.2876        121
 3.50   0.0000    580.7163    144.9663     15166.46      43.5214  83.47     1.885     1.868      1.537  0.001938895  17.5978        122
 4.85   0.0000    571.3085   1447.7944     3002.782      43.5214  19.43     2.258     1.637      2.456  0.001938017  19.3562        123
 5.88   0.0000    565.0881    139.5546     910.1595      43.5214 -69.74     1.052     0.977      1.341  0.001938017  20.6522        124
 3.50   0.0000    582.1971    319.2584     13615.55      43.5214   7.31     1.887     1.830      1.720  0.001940211  17.7149        125
 4.29   0.0000    596.7602    782.6867     10323.98      43.5214 -62.08     3.302     3.182      3.349  0.001938676  18.0154        126
 5.97   0.0000    576.2225   1001.8235     972.3696      43.5214  40.80     1.216     1.076      1.602  0.001939114  20.5804        127
 4.64   0.0000    584.5398     76.0209     1351.768      43.5214  -0.84     1.205     1.138      1.552  0.001939553  20.2227        128
 4.19   0.0000   1001.5298   1555.4829     2617.112      43.5214  54.97     1.346     1.330      1.569  0.001937359  19.5054        129
 4.71   0.0000   1597.6036    654.7847     252.6349      43.5214   1.75     1.659     1.434      2.778   0.00166712  22.0438        130
 5.16   0.0000   1594.7568    374.1190     407.9002      43.5214  42.74     1.307     1.027      1.670  0.001873287  21.5236        131
 4.05   0.0000   1584.9181   1108.9316     2837.411      43.5214 -15.59     1.433     1.357      1.643  0.001937798  19.4177        132
 6.78   0.0000   1585.9497   1069.5099     667.1356      43.5214 -88.96     0.783     0.500      1.532  0.001938017  20.9895        133
 3.60   0.0000   1541.8564    135.1745     6057.411      43.5214  54.68     1.663     1.623      1.504  0.001939334  18.5943        134
 8.74   0.0000   1519.3268     85.3294     554.0653      43.5214 -44.88     0.573     0.336      1.470  0.001937139  21.1911        135
 4.79   0.0000   1514.6519    483.6263     915.1115      43.5214 -43.74     1.049     0.951      1.497  0.001939553  20.6463        136
 4.90   0.0000    912.4185   1001.2366     1007.163      43.5214  73.44     0.989     0.957      1.594  0.001939334  20.5422        137
 3.50   0.0000    900.4997    302.8331     10167.84      43.5214 -64.19     1.794     1.787      1.567   0.00193692  18.0319        138
