#   1 KRON_RADIUS            Kron apertures in units of A or B                         
#   2 MAGERR_APER            RMS error vector for fixed aperture mag.                   [mag]
#   3 Y_IMAGE                Object position along y                                    [pixel]
#   4 X_IMAGE                Object position along x                                    [pixel]
#   5 FLUX_APER              Flux vector within fixed circular aperture(s)              [count]
#   6 THRESHOLD              Detection threshold above background                       [count]
#   7 THETA_IMAGE            Position angle (CCW/x)                                     [deg]
#   8 A_IMAGE                Profile RMS along major axis                               [pixel]
#   9 B_IMAGE                Profile RMS along minor axis                               [pixel]
#  10 FLUX_RADIUS            Fraction-of-light radii                                    [pixel]
#  11 FLUXERR_APER           RMS error vector for aperture flux(es)                     [count]
#  12 MAG_APER               Fixed aperture magnitude vector                            [mag]
#  13 NUMBER                 Running object number                                     
 4.23   0.0010     53.2652     63.6543     121668.4      43.5214   3.17     5.181     4.630      4.359     113.6692  15.3371          1
 3.95   0.0061     16.5149    985.0804     20285.74      43.5214 -88.61     4.203     1.941      3.702     113.6306  17.2820          2
 4.06   0.0072     18.0504     91.3141     17225.72      43.5214   0.42     1.768     1.716      2.409     113.6563  17.4596          3
 3.50   0.0028     14.6167   1445.7477     43793.96      43.5214 -47.82     1.890     1.819      2.384     113.7464  16.4465          4
 8.12   0.1837     10.2946   1183.6542     671.8833      43.5214  42.42     0.565     0.339      2.311     113.6306  20.9818          5
 7.36   0.0532      4.2259    145.0241     2080.868      43.5214  89.83     0.957     0.768      2.839     101.8729  19.7544          6
 6.64   0.0576     17.2495    384.5071     2140.319      43.5214  19.99     0.993     0.952      2.788     113.6177  19.7238          7
 5.14   0.0312     24.7971    367.2085     3957.877      43.5214  13.81     1.305     1.234      2.438     113.6692  19.0563          8
 3.50   0.0006     59.7850   1078.4766     197673.9      43.5214  77.02     2.287     2.159      2.560     113.7849  14.8101          9
 8.57   0.0573     23.7800    383.3999     2154.946      43.5214 -71.85     0.755     0.452      2.443     113.7078  19.7164         10
 6.41   0.0512     33.9023   1110.1802     2409.142      43.5214  68.24     1.657     0.778      2.805     113.6563  19.5953         11
 7.88   0.0815     33.3076    326.9492     1513.443      43.5214  -6.92     0.747     0.677      2.412     113.6434  20.1001         12
 5.98   0.1173     37.8655   1521.1591     1052.368      43.5214  46.72     0.834     0.669      2.502     113.7078  20.4946         13
 7.05   0.0927     38.8750   1170.6508     1331.396      43.5214 -19.52     0.923     0.691      2.419     113.6306  20.2392         14
 5.87   0.0924     42.4605    915.4996     1335.507      43.5214 -77.10     0.913     0.907      2.349     113.6177  20.2359         15
 3.50   0.0006     80.1536    537.6561     192567.3      43.5214 -59.56     2.145     2.122      2.281     113.6949  14.8385         16
 9.02   0.0715     44.6655    440.6699     1725.452      43.5214 -45.19     0.576     0.334      1.934     113.6434  19.9577         17
 4.26   0.0170     75.2162    128.0142     7246.473      43.5214  -5.75     1.516     1.469      2.663     113.7078  18.3997         18
 6.64   0.0603     82.2787    421.5101     2047.431      43.5214 -15.66     0.994     0.986      2.678     113.6177  19.7720         19
 3.50   0.0004    121.8120    789.2006     282366.1      43.5214 -62.81     2.230     2.179      2.405     113.7078  14.4230         20
 6.02   0.0316     90.7295    376.9918     3908.832      43.5214   4.47     1.628     1.442      3.345     113.7592  19.0699         21
 4.42   0.0116     96.6151     56.2576     10672.09      43.5214 -38.95     1.639     1.566      2.440     113.7206  17.9794         22
 6.10   0.0477     98.0585    452.9797     2591.516      43.5214 -14.82     1.454     1.005      2.716     113.7464  19.5161         23
 7.39   0.0872     91.4945    495.9650      1415.17      43.5214  -1.40     0.788     0.500      2.262     113.6306  20.1730         24
 3.50   0.0008    162.2989   1468.3301     160250.7      43.5214 -48.48     2.111     2.074      2.401     113.6434  15.0380         25
 6.85   0.1085    131.2865    418.0175     1138.289      43.5214   5.64     0.729     0.681      2.402     113.6949  20.4094         26
 3.55   0.0034    170.2996    877.3505     36317.85      43.5214  -8.96     1.882     1.865      2.275     113.5533  16.6497         27
 8.52   0.1261    151.4999   1280.4825     978.1085      43.5214 -47.88     0.501     0.498      2.176     113.5662  20.5740         28
 5.51   0.0365    164.9741   1445.6677      3385.85      43.5214  17.35     1.303     1.186      2.513     113.7206  19.2258         29
 4.82   0.0502    166.8505    104.4303     2462.553      43.5214 -46.35     1.196     1.124      2.277     113.7464  19.5715         30
 6.42   0.0841    169.3397   1368.8977     1467.417      43.5214  68.06     0.910     0.689      2.322     113.6177  20.1336         31
 7.68   0.0655    180.3316    574.9897     1885.286      43.5214  53.18     1.039     0.643      2.520     113.7721  19.8616         32
 7.49   0.0466    186.6387   1354.8976     2645.346      43.5214  75.59     1.045     0.753      3.426     113.6048  19.4938         33
 5.30   0.0293    192.6023   1350.5554     4214.657      43.5214 -19.15     1.368     1.305      2.545     113.7721  18.9881         34
 4.77   0.0080    210.7202    827.6749     15458.37      43.5214  -5.78     3.810     2.091      3.808     113.6563  17.5771         35
 4.14   0.0160    206.7225    549.0807      7727.34      43.5214   3.37     1.545     1.484      2.412     113.6692  18.3299         36
 4.19   0.0159    212.1664   1306.1005     7738.256      43.5214 -64.54     1.516     1.487      2.480      113.579  18.3284         37
 5.52   0.0095    230.1494    562.2775     13046.49      43.5214 -37.31     3.231     3.004      5.082     113.6306  17.7613         38
 5.76   0.0506    210.8939    684.8484     2437.685      43.5214 -66.39     1.218     1.115      2.556     113.6177  19.5826         39
 3.50   0.0003    259.7588    997.4791     484020.6      43.5214 -48.81     2.331     2.263      2.442      113.682  13.8378         40
 3.92   0.0142    223.9121   1226.0618     8713.727      43.5214  25.89     1.523     1.479      2.607     113.6434  18.1995         41
 4.86   0.0401    222.6267    774.9695     3076.641      43.5214  81.57     1.224     1.191      2.321     113.7206  19.3298         42
 3.50   0.0003    265.9002     67.6173     361665.3      43.5214 -49.31     2.268     2.237      2.495     113.6563  14.1542         43
 5.52   0.0202    243.9732    112.8913     6115.879      43.5214 -88.19     1.951     1.539      3.459     113.6692  18.5839         44
 4.81   0.0085    255.4885    613.0098     14612.05      43.5214 -41.01     2.436     2.028      3.097     113.7078  17.6382         45
 6.52   0.0483    239.3535    838.8231     2559.371      43.5214  -5.84     1.203     1.102      2.775     113.7335  19.5297         46
 7.18   0.0476    250.5180    107.4840     2590.789      43.5214 -42.78     1.108     0.852      2.847     113.6306  19.5164         47
 3.50   0.0014    287.5196   1486.4733     85517.48      43.5214 -43.97     2.033     1.992      2.475     113.6434  15.7199         48
 3.66   0.0065    281.9236   1522.4003     18922.32      43.5214   3.77     1.701     1.668      2.361     113.7206  17.3576         49
 6.46   0.0626    270.7727   1273.6278      1971.68      43.5214  16.49     1.000     0.849      2.550     113.7335  19.8129         50
 3.50   0.0020    303.1506    201.7659     62947.28      43.5214 -78.11     1.968     1.942      2.417     113.7206  16.0526         51
 6.27   0.0355    293.2967   1475.8354     3470.096      43.5214 -33.66     1.250     1.086      2.437     113.5919  19.1991         52
 4.64   0.0333    302.2875    563.6751     3706.337      43.5214  31.81     1.325     1.283      2.373     113.6177  19.1276         53
 3.50   0.0030    322.0853    697.3419     41555.55      43.5214   1.78     1.882     1.848      2.329     113.6563  16.5034         54
 7.64   0.0507    308.7069     85.2985     2433.919      43.5214  45.78     0.969     0.767      3.138     113.6048  19.5842         55
 6.05   0.0327    321.9905    641.4783     3780.069      43.5214 -64.00     1.799     1.232      3.243     113.7335  19.1063         56
 5.16   0.0151    327.5369    595.4523     8201.604      43.5214 -52.10     1.728     1.694      2.867     113.6692  18.2653         57
 6.07   0.0814    329.2517   1546.0168     1518.155      43.5214 -87.78     0.913     0.756      2.367     113.7464  20.0967         58
 5.83   0.0585    332.2679     93.4347     2109.993      43.5214  20.40     0.992     0.948      2.456     113.7206  19.7393         59
 4.78   0.0296    350.1319     54.7084     4162.664      43.5214  -8.51     1.366     1.298      2.432     113.6306  19.0016         60
 3.50   0.0029    368.1670    761.1217     43188.04      43.5214 -26.12     1.940     1.871      2.458     113.6949  16.4616         61
 4.02   0.0160    361.1491   1500.4037     7740.293      43.5214 -15.08     1.586     1.464      2.502     113.7849  18.3281         62
 3.50   0.0006    395.2009    231.4691     210342.9      43.5214 -63.05     2.184     2.143      2.436     113.7592  14.7427         63
 5.78   0.0609    360.5269   1034.0070     2029.203      43.5214  -1.40     1.111     0.957      2.450     113.7592  19.7817         64
 6.91   0.0481    375.4792    754.0627      2564.61      43.5214  56.22     1.715     0.961      2.866     113.6306  19.5274         65
 7.68   0.0773    370.3091     71.9499     1597.035      43.5214 -10.89     0.743     0.672      2.494     113.6692  20.0417         66
 6.47   0.0637    373.4826   1083.8826     1935.842      43.5214 -17.84     1.100     0.990      2.692     113.6306  19.8328         67
 6.41   0.0667    380.6161      1.4882     1415.115      43.5214 -89.79     1.601     0.500      2.633     86.88364  20.1730         68
 3.50   0.0041    397.0519   1461.2017     30182.68      43.5214 -44.85     1.804     1.797      2.450     113.7849  16.8506         69
 3.50   0.0036    398.1799    354.6261     34328.65      43.5214 -13.53     1.890     1.844      2.394     113.7078  16.7109         70
 8.09   0.1561    375.6552     87.2937     790.4585      43.5214  47.61     0.564     0.339      1.890     113.6434  20.8053         71
 6.71   0.0861    380.1594    125.8447      1435.09      43.5214  44.65     0.818     0.680      2.380     113.7335  20.1578         72
 4.22   0.0170    393.8183   1088.7736     7250.202      43.5214 -35.06     1.516     1.449      2.359     113.7206  18.3991         73
 8.89   0.1023    382.4900     67.5055     1205.526      43.5214 -44.69     0.503     0.497      2.079     113.5919  20.3471         74
 8.07   0.1575    388.6902   1195.3347     783.8548      43.5214  43.77     0.567     0.338      2.349     113.6692  20.8144         75
 6.14   0.0493    412.0432      1.7727     1952.961      43.5214  90.00     2.505     0.701      3.492     88.69999  19.8233         76
 7.90   0.0414    396.8768    626.5975     2985.754      43.5214 -73.71     1.239     0.985      3.434     113.7206  19.3624         77
 8.16   0.0606    403.6928    526.4366     2037.771      43.5214  81.17     1.023     0.476      2.729     113.6434  19.7771         78
 7.54   0.1327    407.0518    282.4902     930.5001      43.5214 -88.59     0.787     0.500      2.271     113.6692  20.6282         79
 3.50   0.0018    437.9478    252.1072      68501.9      43.5214 -87.21     2.006     1.974      2.453     113.6434  15.9607         80
 3.50   0.0002    461.0704    807.6703     592479.1      43.5214 -68.51     2.341     2.304      2.569      113.579  13.6183         81
 5.83   0.0299    420.9021    159.0900     4122.205      43.5214  37.62     1.694     1.421      3.039     113.5919  19.0122         82
 7.67   0.1297    419.5386   1580.4929     951.4936      43.5214  40.47     0.504     0.495      2.386     113.6434  20.6040         83
 4.17   0.0222    432.9492   1422.0629     5549.273      43.5214   6.85     1.427     1.396      2.431     113.6692  18.6894         84
 6.72   0.0565    426.5748   1179.2787     2187.455      43.5214  26.35     1.188     0.957      2.835     113.7078  19.7002         85
 6.42   0.0009    426.8329    433.0970     139433.3      43.5214  -3.27     2.183     0.735      4.184     113.6177  15.1891         86
 5.15   0.0507    434.2586    151.1154     2434.283      43.5214 -20.05     1.138     1.034      2.371     113.6563  19.5841         87
 3.88   0.0057    450.3392     21.3603     21738.67      43.5214 -27.47     1.777     1.769      2.475     113.7206  17.2069         88
 5.07   0.0069    467.7993    850.4810      17816.6      43.5214  22.59     7.403     2.054      6.200     113.7206  17.4229         89
 9.05   0.0507    430.6650    719.3185     2431.682      43.5214  45.76     0.572     0.336      2.286     113.6177  19.5852         90
 4.48   0.0509    440.0043    305.8401     2428.662      43.5214  22.45     1.160     1.136      2.259     113.7206  19.5866         91
 5.42   0.0328    445.2589    122.3780     3769.754      43.5214 -23.52     1.401     1.309      2.643     113.7464  19.1092         92
 3.80   0.0050    457.8408     34.5939     24701.09      43.5214 -30.83     1.779     1.767      2.405     113.7335  17.0682         93
 8.05   0.1066    443.6886    655.3237     1157.354      43.5214  44.36     0.563     0.340      2.197     113.6048  20.3913         94
 4.32   0.0159    463.6414    468.6490     7787.465      43.5214  70.99     1.619     1.558      2.493     113.7464  18.3215         95
 6.24   0.1024    452.9206   1533.0249      1206.09      43.5214 -31.03     0.792     0.774      2.437     113.7078  20.3465         96
 5.22   0.0484    460.9918   1096.1410     2555.696      43.5214  47.71     1.191     1.080      2.441     113.7849  19.5312         97
 4.60   0.0188    471.3581    254.2742     6576.427      43.5214 -79.51     1.510     1.439      2.401      113.682  18.5050         98
 4.03   0.0125    472.1380    734.9207      9863.64      43.5214  75.27     1.566     1.511      2.297     113.6306  18.0649         99
 7.71   0.0724    461.8358    724.7247     1706.405      43.5214 -20.12     0.949     0.683      2.631      113.682  19.9698        100
 3.70   0.0099    477.9271    923.0840     12527.96      43.5214 -28.67     1.679     1.612      2.324     113.6306  17.8053        101
 4.34   0.0266    477.2791   1276.4363     4648.226      43.5214 -44.53     1.334     0.920      2.836      113.682  18.8818        102
 5.84   0.0399    488.9431    839.6031     3096.525      43.5214  87.10     2.059     0.959      3.448     113.7849  19.3228        103
 4.14   0.0245    484.0388   1070.6680     5033.713      43.5214 -80.82     1.429     1.400      2.320     113.7078  18.7953        104
 7.10   0.1547    475.9789   1168.4807     798.3174      43.5214  89.68     0.781     0.500      1.973     113.7206  20.7946        105
 5.40   0.0132    496.2654     82.9187     9350.172      43.5214  66.13     2.311     2.046      3.697     113.6177  18.1229        106
 6.87   0.0809    478.8629    682.8434     1525.886      43.5214 -46.10     0.819     0.679      2.523      113.682  20.0912        107
 5.12   0.0145    495.7248   1186.8407     8494.968      43.5214 -15.71     2.996     1.931      3.864      113.682  18.2271        108
 5.26   0.0227    504.0796    762.8668      5444.16      43.5214 -10.71     1.688     1.646      3.145     113.6177  18.7102        109
 4.77   0.0367    502.0138    863.8067     3367.294      43.5214  64.62     1.201     1.192      2.406     113.6434  19.2318        110
 4.57   0.0114    515.3623   1461.0657     10871.75      43.5214  23.93     4.115     1.649      3.671     113.7206  17.9593        111
 6.08   0.0955    498.0054    366.2516     1293.411      43.5214   0.37     0.926     0.749      2.378     113.7849  20.2707        112
 6.08   0.0355    509.9191    164.8152     3479.083      43.5214  -5.95     1.820     1.073      3.120     113.7335  19.1963        113
 4.83   0.0364    513.8598   1179.1876     3394.764      43.5214  24.06     1.285     1.178      2.567     113.7335  19.2230        114
 5.52   0.0531    519.1540    641.9484     2326.623      43.5214  22.36     1.200     1.120      2.502     113.7592  19.6332        115
 6.45   0.1192    518.1915   1519.1722     1036.268      43.5214  45.74     0.761     0.567      2.448     113.7206  20.5113        116
 4.09   0.0172    540.2067    999.9378     7183.347      43.5214  61.15     1.534     1.490      2.432     113.7721  18.4092        117
 6.53   0.0683    536.3547    404.5305     1807.425      43.5214  38.93     1.195     0.786      2.515     113.6692  19.9073        118
 3.90   0.0124    558.9035   1041.7982     9967.934      43.5214   6.20     1.633     1.563      2.394     113.6949  18.0535        119
 4.74   0.0170    571.3472     45.9143     7271.796      43.5214  46.17     2.084     1.522      2.829     113.6434  18.3959        120
 5.98   0.1417    555.8228    778.8107     871.6674      43.5214  44.57     0.756     0.567      2.342     113.6949  20.6991        121
 3.50   0.0030    580.7163    144.9663     40799.74      43.5214  83.47     1.885     1.868      2.429     113.7078  16.5234        122
 4.85   0.0194    571.3085   1447.7944      6364.69      43.5214  19.43     2.258     1.637      3.187     113.6563  18.5406        123
 5.88   0.0668    565.0881    139.5546     1848.721      43.5214 -69.74     1.052     0.977      2.505     113.6563  19.8828        124
 3.50   0.0030    582.1971    319.2584     41074.89      43.5214   7.31     1.887     1.830      2.363     113.7849  16.5161        125
 4.29   0.0064    596.7602    782.6867      19357.2      43.5214 -62.08     3.302     3.182      4.238     113.6949  17.3329        126
 5.97   0.0503    576.2225   1001.8235     2455.404      43.5214  40.80     1.216     1.076      2.771     113.7206  19.5747        127
 4.64   0.0436    584.5398     76.0209     2831.868      43.5214  -0.84     1.205     1.138      2.386     113.7464  19.4198        128
 4.19   0.0273   1001.5298   1555.4829     4523.865      43.5214  54.97     1.346     1.330      2.351     113.6177  18.9112        129
 4.71   0.0350   1597.6036    654.7847     3034.745      43.5214   1.75     1.659     1.434      2.500     97.76935  19.3447        130
 5.16   0.0578   1594.7568    374.1190     2063.841      43.5214  42.74     1.307     1.027      2.438     109.8601  19.7633        131
 4.05   0.0237   1584.9181   1108.9316      5212.14      43.5214 -15.59     1.433     1.357      2.367     113.6434  18.7575        132
 6.78   0.1402   1585.9497   1069.5099     880.2903      43.5214 -88.96     0.783     0.500      2.248     113.6563  20.6884        133
 3.60   0.0085   1541.8564    135.1745     14546.23      43.5214  54.68     1.663     1.623      2.320     113.7335  17.6431        134
 8.74   0.1775   1519.3268     85.3294     694.9143      43.5214 -44.88     0.573     0.336      1.819     113.6048  20.9452        135
 4.79   0.0836   1514.6519    483.6263     1477.859      43.5214 -43.74     1.049     0.951      2.230     113.7464  20.1259        136
 4.90   0.0729    912.4185   1001.2366     1695.417      43.5214  73.44     0.989     0.957      2.181     113.7335  19.9768        137
 3.50   0.0045    900.4997    302.8331     27409.87      43.5214 -64.19     1.794     1.787      2.397     113.5919  16.9552        138
