#   1 KRON_RADIUS            Kron apertures in units of A or B                         
#   2 MAGERR_APER            RMS error vector for fixed aperture mag.                   [mag]
#   3 Y_IMAGE                Object position along y                                    [pixel]
#   4 X_IMAGE                Object position along x                                    [pixel]
#   5 THETA_IMAGE            Position angle (CCW/x)                                     [deg]
#   6 FLUX_APER              Flux vector within fixed circular aperture(s)              [count]
#   7 A_IMAGE                Profile RMS along major axis                               [pixel]
#   8 THRESHOLD              Detection threshold above background                       [count]
#   9 B_IMAGE                Profile RMS along minor axis                               [pixel]
#  10 FLUX_RADIUS            Fraction-of-light radii                                    [pixel]
#  11 FLUXERR_APER           RMS error vector for aperture flux(es)                     [count]
#  12 MAG_APER               Fixed aperture magnitude vector                            [mag]
#  13 NUMBER                 Running object number                                     
 4.20   0.0011     52.3034     61.8495   2.51     133131.5     4.442     65.14034     3.989      9.702     129.2328  15.2393          1
 3.77   0.0064     15.6711    983.4545 -87.99     21868.58     3.861     65.14034     1.647      6.614     129.3354  17.2004          2
 3.62   0.0077     17.0230     89.4899 -26.39      18170.3     1.422     65.14034     1.344      2.864     129.3793  17.4016          3
 3.50   0.0030     13.8104   1444.2446 -29.34     46555.05     1.547     65.14034     1.516      2.967     129.4232  16.3801          4
 9.00   0.0666      3.3280    143.3375 -44.59     1808.561     0.577     65.14034     0.334      2.926     110.8645  19.9067          5
 5.36   0.0551     16.2085    382.9816  89.06     2549.443     0.890     65.14034     0.752      2.905     129.3647  19.5339          6
 4.66   0.0382     23.7973    365.4003 -84.17      3676.04     1.089     65.14034     1.032      2.865     129.4232  19.1365          7
 8.20   0.0878     23.2996    381.3436 -42.82      1598.44     0.566     65.14034     0.338      2.691     129.2475  20.0408          8
 3.50   0.0007     58.9551   1076.9459  70.23     212690.3     1.898     65.14034     1.774      3.088      129.394  14.7306          9
 6.03   0.0644     33.4796   1108.6080  64.27     2181.493     1.510     65.14034     0.629      3.952      129.394  19.7031         10
 7.91   0.0781     32.4033    324.8148 -18.96     1798.804     0.755     65.14034     0.449      3.374     129.3647  19.9125         11
 5.58   0.1503     37.0213   1519.9889  21.84     934.5593     0.611     65.14034     0.611      2.398     129.3647  20.6235         12
 6.31   0.0893     38.1393   1169.1509  44.59     1572.374     0.749     65.14034     0.572      3.100     129.3647  20.0586         13
 6.16   0.0907     41.5179    913.9079  -0.91      1549.12     0.771     65.14034     0.500      2.747     129.3354  20.0748         14
 3.50   0.0007     79.0638    535.8656 -71.09     205230.7     1.799     65.14034     1.767      3.030     129.3207  14.7694         15
 3.76   0.0184     74.1700    126.4531 -28.84      7628.04     1.258     65.14034     1.182      2.835     129.4232  18.3440         16
 6.21   0.0658     81.4861    419.7835 -89.81     2134.945     0.968     65.14034     0.724      3.346      129.394  19.7265         17
 6.69   0.0336     89.5848    375.0995 -11.54     4184.968     1.320     65.14034     1.036      5.084     129.3647  18.9958         18
 3.50   0.0005    120.9212    787.5002 -59.71     304282.6     1.833     65.14034     1.825      3.059     129.2475  14.3418         19
 3.94   0.0125     95.6125     54.3898 -38.35      11200.8     1.297     65.14034     1.241      2.893       129.35  17.9269         20
 6.66   0.1185     90.6038    494.2029 -18.24     1185.991     0.728     65.14034     0.456      2.560     129.3647  20.3648         21
 6.22   0.0506     97.0223    451.4500  -4.42      2780.19     1.053     65.14034     0.780      3.917     129.4232  19.4398         22
 6.76   0.0983    130.4583    416.4763  21.10      1428.97     0.500     65.14034     0.498      2.676       129.35  20.1624         23
 3.50   0.0008    161.4535   1466.8450 -66.04     172462.1     1.744     65.14034     1.727      3.060      129.394  14.9583         24
 3.50   0.0036    169.3001    875.6627 -39.94     39226.06     1.534     65.14034     1.515      2.936     129.3207  16.5661         25
 4.65   0.0401    164.1470   1444.2490 -65.13     3501.085     1.073     65.14034     0.995      2.917      129.394  19.1895         26
 3.90   0.0552    165.6745    102.5966 -41.51     2547.441     1.017     65.14034     0.920      2.610     129.4671  19.5347         27
 7.35   0.1054    168.4966   1367.4883  45.85     1331.649     0.502     65.14034     0.498      2.572     129.2475  20.2390         28
 7.70   0.0566    185.9798   1353.4911 -89.21     2480.508     0.796     65.14034     0.500      3.774       129.35  19.5636         29
 4.74   0.0294    191.8871   1349.0082   9.23     4787.608     1.093     65.14034     1.083      3.190      129.394  18.8497         30
 4.97   0.0085    209.7816    825.9514  -7.57     16541.67     3.145     65.14034     1.693      7.906     129.4086  17.5036         31
 3.71   0.0178    205.7242    547.4327 -27.80     7890.961     1.268     65.14034     1.220      2.764     129.3647  18.3072         32
 3.65   0.0177    211.4296   1304.5750 -26.27     7923.316     1.248     65.14034     1.242      2.826     129.4086  18.3027         33
 5.99   0.0588    209.9860    683.0103 -88.12      2387.79     1.026     65.14034     0.734      3.233       129.35  19.6050         34
 5.59   0.0097    229.1618    560.4160 -36.10     14553.12     2.830     65.14034     2.521      8.643     129.4379  17.6426         35
 3.56   0.0157    223.3353   1224.5809 -36.23     8933.233     1.273     65.14034     1.233      2.849     129.4232  18.1725         36
 3.50   0.0003    258.9106    995.8257 -71.98       512542     1.918     65.14034     1.899      3.094     129.3647  13.7757         37
 4.31   0.0447    221.5924    773.3193 -14.50     3141.977     1.060     65.14034     0.974      2.848      129.394  19.3070         38
 3.50   0.0004    264.9516     65.7890 -57.20     388009.2     1.875     65.14034     1.852      3.055     129.4525  14.0779         39
 5.57   0.0226    243.0064    111.0418 -88.92     6209.649     1.582     65.14034     1.198      4.540     129.4232  18.5673         40
 6.43   0.0513    238.3742    837.2224 -31.21     2738.677     1.016     65.14034     0.916      4.065     129.4232  19.4561         41
 4.83   0.0088    254.5080    611.2502 -38.55     15925.01     2.022     65.14034     1.655      5.176     129.3354  17.5448         42
 6.33   0.0489    249.4847    105.5596 -21.18     2873.536     0.902     65.14034     0.882      4.654     129.3793  19.4040         43
 3.50   0.0015    286.7240   1485.0078 -63.00     91846.12     1.644     65.14034     1.627      3.040     129.4379  15.6423         44
 6.27   0.0714    269.9772   1271.9922  -1.56     1967.448     0.789     65.14034     0.784      3.221     129.3793  19.8152         45
 3.50   0.0070    281.0651   1520.9044 -20.69      20134.4     1.367     65.14034     1.351      2.845     129.3354  17.2902         46
 3.50   0.0021    302.1579    199.9657 -33.04     67331.81     1.618     65.14034     1.605      2.938     129.4525  15.9794         47
 5.49   0.0338    292.5531   1474.0583  -1.34     4152.342     1.049     65.14034     0.933      3.759     129.3793  19.0043         48
 4.42   0.0403    301.2180    561.9072  18.86     3482.512     1.129     65.14034     1.058      2.961     129.3793  19.1953         49
 3.50   0.0031    321.1726    695.6197 -26.26     44620.96     1.553     65.14034     1.509      2.916      129.394  16.4262         50
 7.87   0.0679    307.7152     83.4339  80.94     2069.208     1.003     65.14034     0.476      3.824      129.394  19.7605         51
 6.17   0.0381    321.0647    639.6444 -67.67     3686.851     1.609     65.14034     0.861      4.308     129.3793  19.1334         52
 4.98   0.0167    326.5730    593.8109   7.14     8437.058     1.495     65.14034     1.367      4.335     129.4086  18.2345         53
 5.80   0.1254    328.6497   1544.8694  10.60     1119.711     0.732     65.14034     0.651      2.450     129.3207  20.4272         54
 4.93   0.0792    331.1288     91.6019 -14.07     1775.904     0.974     65.14034     0.736      2.757     129.4525  19.9265         55
 4.17   0.0314    349.0255     52.9406 -34.32     4472.671     1.109     65.14034     1.089      2.965     129.4379  18.9236         56
 3.50   0.0030    367.2481    759.5090  -9.25     46046.61     1.555     65.14034     1.529      2.938     129.3061  16.3920         57
 3.89   0.0171    360.4133   1498.9653  13.98      8201.48     1.270     65.14034     1.201      2.896     129.4379  18.2653         58
 4.06   0.0692    359.7190   1032.4745   1.63     2029.549     0.960     65.14034     0.930      2.457     129.3207  19.7815         59
 3.50   0.0006    394.2187    229.6441 -68.12     225461.6     1.801     65.14034     1.777      3.016     129.4232  14.6673         60
 6.64   0.0381    374.3668    752.0930  47.82     3683.134     1.482     65.14034     0.696      4.745     129.3207  19.1345         61
 8.25   0.1139    369.4944     69.5316 -56.01      1233.58     0.501     65.14034     0.498      2.936     129.3354  20.3221         62
 6.81   0.0664    372.6188   1082.2681 -17.95      2115.78     0.948     65.14034     0.637      3.425     129.4379  19.7363         63
 7.60   0.2305    374.3250     85.3358 -44.52     609.1313     0.575     65.14034     0.335      2.104     129.3061  21.0882         64
 5.83   0.0938    379.2894    123.9578  -3.94     1498.389     0.729     65.14034     0.671      2.729       129.35  20.1109         65
 3.50   0.0044    396.2292   1459.7554 -36.91     31907.13     1.475     65.14034     1.464      2.955     129.4671  16.7903         66
 3.50   0.0039    397.1713    352.8766 -25.80     36317.73     1.525     65.14034     1.501      2.901     129.3793  16.6497         67
 3.66   0.0185    392.8804   1087.1648  -9.50     7579.547     1.239     65.14034     1.206      2.812     129.3793  18.3509         68
 7.81   0.0423    395.9946    624.9952  71.33     3317.514     0.799     65.14034     0.798      4.635     129.3354  19.2480         69
 7.27   0.1252    406.4605    280.4913 -17.59     1122.065     0.500     65.14034     0.498      2.531     129.3207  20.4250         70
 5.30   0.0342    419.8942    157.4371  26.75     4108.612     1.448     65.14034     1.193      4.085     129.2914  19.0158         71
 3.50   0.0019    437.0088    250.3023 -32.19     73457.36     1.624     65.14034     1.615      2.956     129.3354  15.8849         72
 3.50   0.0002    460.3148    806.0232 -65.11     639075.6     1.935     65.14034     1.920      3.110     129.3793  13.5361         73
 7.45   0.0610    425.8697   1178.0779  43.77     2301.791     0.858     65.14034     0.661      3.932     129.2914  19.6448         74
 3.69   0.0252    432.1023   1420.5601 -11.63     5577.411     1.208     65.14034     1.109      2.739     129.2914  18.6839         75
 4.94   0.0632    433.1256    149.3873  -9.79     2224.332     0.981     65.14034     0.856      2.759     129.4671  19.6820         76
 4.38   0.0573    439.0159    303.9682 -20.07     2452.627     0.920     65.14034     0.913      2.454     129.4232  19.5759         77
 5.20   0.0072    466.9002    848.8165  22.61      19588.4     6.820     65.14034     1.769     13.683       129.35  17.3200         78
 3.54   0.0061    449.4023     19.5231 -30.68     23108.87     1.437     65.14034     1.406      2.876     129.4086  17.1406         79
 5.15   0.0359    444.2394    120.4318 -22.01     3913.598     1.210     65.14034     1.108      3.612     129.4379  19.0686         80
 3.50   0.0054    456.8024     32.7392  -3.30     26127.23     1.443     65.14034     1.422      2.857     129.4818  17.0073         81
 7.16   0.1509    442.5621    653.4972 -10.91     930.5066     0.500     65.14034     0.496      2.502     129.2768  20.6282         82
 5.48   0.1162    452.0169   1531.7256 -85.78     1210.378     0.721     65.14034     0.674      2.432     129.4818  20.3427         83
 3.99   0.0164    462.7450    466.8865  54.88     8558.549     1.308     65.14034     1.243      3.001     129.3207  18.2190         84
 4.66   0.0510    460.2122   1094.6180   6.35     2755.965     0.975     65.14034     0.925      3.040     129.3647  19.4493         85
 3.62   0.0137    471.1317    733.2081  79.83     10231.17     1.283     65.14034     1.279      2.731     129.4671  18.0252         86
 4.08   0.0192    470.3870    252.5030   5.65      7325.21     1.263     65.14034     1.233      2.967       129.35  18.3879         87
 8.39   0.0810    460.5989    723.2239 -18.39     1735.558     0.756     65.14034     0.451      3.555     129.3793  19.9514         88
 3.50   0.0105    477.0223    921.4086 -70.99     13335.74     1.335     65.14034     1.318      2.802      129.394  17.7375         89
 3.88   0.0282    477.0480   1275.3263 -57.55     4984.991     1.145     65.14034     1.027      2.738     129.3354  18.8058         90
 7.61   0.1513    475.3035   1166.6748  43.83     928.4846     0.561     65.14034     0.342      2.272     129.3207  20.6306         91
 6.22   0.0472    487.6810    837.9964 -83.71     2979.096     1.704     65.14034     0.715      4.769     129.4086  19.3648         92
 3.69   0.0258    483.0464   1069.0927 -24.30     5448.851     1.130     65.14034     1.125      2.700     129.2914  18.7092         93
 6.02   0.1129    477.7341    681.0251  -3.82     1245.086     0.725     65.14034     0.675      2.805     129.4086  20.3120         94
 5.29   0.0145    495.1190     81.1906  45.43     9710.097     2.066     65.14034     1.767      6.077     129.3793  18.0819         95
 5.45   0.0149    494.7936   1185.2228 -14.10     9419.192     2.599     65.14034     1.517      6.545      129.394  18.1150         96
 5.72   0.0248    503.3142    761.2948 -38.41     5657.329     1.466     65.14034     1.337      4.784     129.2475  18.6685         97
 4.13   0.0433    501.1669    862.1559 -43.76     3250.299     1.112     65.14034     1.006      2.655     129.4525  19.2702         98
 5.64   0.1065    497.0226    364.6823 -87.03     1319.254     0.730     65.14034     0.667      2.638      129.394  20.2492         99
 4.77   0.0119    514.4293   1459.5134  23.73     11838.63     3.563     65.14034     1.308      7.570      129.394  17.8667        100
 5.66   0.0436    508.9268    163.3875  -3.75     3227.888     1.654     65.14034     0.787      4.242     129.4818  19.2777        101
 4.26   0.0393    512.8962   1177.7278 -61.45      3572.09     1.075     65.14034     0.992      2.784     129.3207  19.1677        102
 5.41   0.0656    518.3445    640.3340 -41.64     2140.117     1.060     65.14034     0.951      3.147       129.35  19.7239        103
 6.49   0.1348    517.4171   1517.7679 -18.84     1042.369     0.723     65.14034     0.459      2.478     129.4232  20.5049        104
 3.72   0.0184    539.3714    998.3492 -26.35     7646.311     1.257     65.14034     1.218      2.786     129.4379  18.3414        105
 6.75   0.0760    535.1268    402.7053  21.93     1849.183     0.939     65.14034     0.684      3.543     129.3354  19.8825        106
 3.70   0.0134    558.0494   1040.1455  18.85     10483.56     1.313     65.14034     1.296      2.874     129.4086  17.9987        107
 6.44   0.2266    554.9899    777.2524  89.44     620.5961     0.670     65.14034     0.434      2.290     129.4671  21.0680        108
 4.62   0.0186    570.3089     44.1189  51.69     7569.195     1.845     65.14034     1.271      4.163     129.3207  18.3524        109
 3.50   0.0032    579.6545    143.1783 -44.32      43878.6     1.563     65.14034     1.533      2.903     129.4525  16.4444        110
 5.36   0.0191    570.5286   1446.4730  17.88     7350.496     1.856     65.14034     1.391      5.395     129.2768  18.3842        111
 3.50   0.0032    581.2003    317.4489 -12.26     43837.38     1.570     65.14034     1.539      2.919     129.4818  16.4454        112
 5.79   0.0710    563.8646    137.6890 -21.27     1979.148     0.892     65.14034     0.686      2.878     129.3354  19.8088        113
 4.69   0.0065    595.7537    780.8385 -56.47      21566.6     3.023     65.14034     2.605      7.824     129.4232  17.2155        114
 6.19   0.0563    575.3632   1000.3189  45.20     2496.417     1.005     65.14034     0.886      3.714     129.3793  19.5567        115
 4.45   0.0518    583.4443     74.1731 -17.03     2712.497     1.094     65.14034     0.938      2.555     129.4671  19.4666        116
 3.75   0.0112   1000.7644    540.9913  -8.94     12539.06     1.362     65.14034     1.329      2.972     129.4232  17.8043        117
 7.83   0.1352   1599.7003     17.3366  43.09     782.9288     0.564     65.14034     0.340      3.160     97.46062  20.8157        118
 5.25   0.0301   1596.6635    653.0926 -59.61     4197.825     1.485     65.14034     1.346      4.115     116.5133  18.9924        119
 5.50   0.0545   1593.6263    372.3974  44.56     2562.074     1.077     65.14034     0.932      3.425      128.483  19.5285        120
 8.20   0.1202   1592.4907   1383.5098 -45.05     1167.956     0.502     65.14034     0.498      2.849     129.2621  20.3814        121
 7.32   0.1502   1590.3160    565.3229 -44.66     934.9716     0.565     65.14034     0.340      2.196     129.3061  20.6230        122
 6.48   0.1093   1584.9933   1068.0237   1.49     1285.756     0.615     65.14034     0.610      2.569      129.394  20.2771        123
 3.50   0.0090   1540.7362    133.3148 -47.70     15593.72     1.408     65.14034     1.367      2.811     129.3207  17.5676        124
 3.50   0.0010   1506.1389    267.6415 -39.96     144055.9     1.723     65.14034     1.706      2.970      129.394  15.1537        125
 4.58   0.0797   1064.9565   1595.7683  -2.91     1648.758     0.881     65.14034     0.748      2.477     120.9332  20.0071        126
 5.63   0.0319    979.9975    796.2272 -68.28     4406.182     1.224     65.14034     1.180      4.087     129.3793  18.9398        127
 6.39   0.0514    977.0343    451.0101 -40.67     2732.226     0.784     65.14034     0.775      3.614     129.4379  19.4587        128
 5.05   0.0700    964.0334    414.7816   0.25     2007.997     0.891     65.14034     0.748      2.528     129.4232  19.7931        129
 6.12   0.0395    949.9987    652.6572 -89.85     3559.987     1.224     65.14034     0.992      4.276     129.4964  19.1714        130
 5.24   0.0773    946.8032    443.5172  -1.66     1817.149     0.923     65.14034     0.719      2.822      129.394  19.9015        131
 3.69   0.0168    938.3217   1065.6394  41.58      8339.65     1.248     65.14034     1.193      2.750       129.35  18.2471        132
 7.35   0.0456    937.5718    514.6093  47.45     3079.795     1.032     65.14034     0.878      4.931     129.4086  19.3287        133
 4.11   0.0291    927.3743   1321.0085 -85.38     4836.929     1.159     65.14034     1.128      2.979     129.4086  18.8386        134
 3.57   0.0380    911.8421    836.9899  38.07     3697.531     1.095     65.14034     1.086      2.600     129.4232  19.1302        135
 4.50   0.0688    911.3700    999.6253 -45.17     2042.099     0.962     65.14034     0.860      2.693      129.394  19.7748        136
 3.50   0.0048    899.4661    301.0907 -18.69     29054.37     1.479     65.14034     1.444      2.875       129.35  16.8920        137
 4.85   0.0214    895.2223    536.8345   2.48     6557.806     1.747     65.14034     1.407      4.615     129.4086  18.5081        138
