#   1 KRON_RADIUS            Kron apertures in units of A or B                         
#   2 MAGERR_APER            RMS error vector for fixed aperture mag.                   [mag]
#   3 Y_IMAGE                Object position along y                                    [pixel]
#   4 X_IMAGE                Object position along x                                    [pixel]
#   5 FLUX_APER              Flux vector within fixed circular aperture(s)              [count]
#   6 THRESHOLD              Detection threshold above background                       [count]
#   7 THETA_IMAGE            Position angle (CCW/x)                                     [deg]
#   8 A_IMAGE                Profile RMS along major axis                               [pixel]
#   9 B_IMAGE                Profile RMS along minor axis                               [pixel]
#  10 FLUX_RADIUS            Fraction-of-light radii                                    [pixel]
#  11 FLUXERR_APER           RMS error vector for aperture flux(es)                     [count]
#  12 MAG_APER               Fixed aperture magnitude vector                            [mag]
#  13 NUMBER                 Running object number                                     
 4.17   0.0006     53.2565     63.6428     58670.13      43.5463   1.98     5.123     4.572     10.352     32.28566  16.1290          1
 3.87   0.0036     16.4784    985.0769     9666.836      43.5463 -88.62     4.214     1.929      6.745     32.28201  18.0868          2
 3.94   0.0045     18.0460     91.3107     7870.626      43.5463 -21.89     1.737     1.698      2.834      32.2747  18.3100          3
 3.50   0.0017     14.6388   1445.7582     20418.99      43.5463 -57.14     1.867     1.780      2.786     32.30028  17.2749          4
 8.01   0.1353     10.3046   1183.6648     259.0791      43.5463  43.46     0.565     0.339      2.274     32.27835  22.0164          5
 7.29   0.0399      4.4737    145.2111      796.258      43.5463 -88.54     1.003     0.739      3.527     29.26842  20.7974          6
 6.79   0.0383     17.2495    384.5198     916.3939      43.5463  14.89     0.994     0.963      3.414     32.27835  20.6448          7
 5.10   0.0206     24.7656    367.2277     1701.768      43.5463 -21.08     1.302     1.279      3.061     32.29297  19.9727          8
 3.50   0.0004     59.7884   1078.4711     93338.54      43.5463  81.96     2.254     2.134      2.968     32.31489  15.6248          9
 8.47   0.0556     23.7820    383.3971      630.593      43.5463 -72.10     0.757     0.452      3.260     32.28201  21.0506         10
 6.25   0.0363     34.0507   1110.2819     965.1808      43.5463  62.34     1.556     0.820      3.498      32.2747  20.5885         11
 7.75   0.0523     33.6917    326.9680     670.8884      43.5463   4.05     0.746     0.680      3.110     32.27835  20.9834         12
 5.80   0.0905     37.8551   1521.1614     387.5865      43.5463  46.17     0.829     0.669      2.248     32.29663  21.5791         13
 7.09   0.0645     38.8824   1170.3628     543.7294      43.5463  19.36     0.930     0.690      2.834     32.29297  21.2115         14
 5.89   0.0630     42.2124    915.4865     556.7355      43.5463   0.03     0.960     0.732      2.412     32.29663  21.1859         15
 3.50   0.0004     80.1619    537.6298     89551.17      43.5463 -62.67     2.147     2.092      2.865     32.30028  15.6698         16
 9.34   0.0546     44.4960    440.5079     641.0874      43.5463 -45.27     0.502     0.498      3.014     32.26007  21.0327         17
 4.11   0.0108     75.1902    128.0414     3244.541      43.5463 -37.04     1.529     1.468      2.698     32.30028  19.2721         18
 6.49   0.0420     82.2800    421.5060     833.8226      43.5463 -72.84     0.994     0.983      3.148     32.27104  20.7473         19
 5.82   0.0196     90.8266    377.0053     1793.765      43.5463 -20.10     1.665     1.529      4.891     32.29663  19.9156         20
 3.50   0.0003    121.8114    789.1776     133057.9      43.5463 -58.05     2.229     2.157      2.881     32.28932  15.2399         21
 4.36   0.0071     96.6437     56.2313     4913.864      43.5463 -31.28     1.614     1.551      2.948     32.30759  18.8214         22
 5.99   0.0307     98.0480    452.9695     1144.688      43.5463 -14.64     1.446     1.005      3.748     32.30759  20.4033         23
 7.37   0.0701     91.5052    495.9703     500.3832      43.5463  -1.48     0.787     0.500      2.356     32.28201  21.3017         24
 3.50   0.0005    162.3181   1468.3154      75402.7      43.5463 -54.27     2.107     2.045      2.895     32.27104  15.8565         25
 6.96   0.0737    131.2889    418.0246     475.6222      43.5463   6.46     0.732     0.680      2.538     32.28566  21.3568         26
 3.51   0.0021    170.3064    877.3268     16967.33      43.5463 -37.22     1.862     1.820      2.818      32.2747  17.4760         27
 8.35   0.1015    151.4877   1280.4851     345.2327      43.5463 -45.63     0.501     0.498      2.633     32.27104  21.7047         28
 5.42   0.0230    164.9675   1445.6466     1527.617      43.5463  15.16     1.301     1.188      3.090     32.30759  20.0900         29
 4.31   0.0345    166.7818    104.4359     1015.615      43.5463 -17.88     1.262     1.144      2.397     32.30393  20.5332         30
 6.36   0.0572    169.3399   1368.8975     612.6417      43.5463  67.99     0.912     0.688      2.713     32.26738  21.0820         31
 7.84   0.0450    180.1621    574.8980     779.0271      43.5463  43.06     0.862     0.672      3.794     32.26373  20.8211         32
 7.46   0.0359    186.6548   1354.9116     976.5993      43.5463  76.16     1.037     0.755      4.547      32.2747  20.5757         33
 5.19   0.0179    192.5967   1350.5398     1962.849      43.5463 -13.63     1.363     1.306      3.350     32.31489  19.8178         34
 4.70   0.0048    210.7428    827.6968     7315.899      43.5463  -6.18     3.876     2.046      8.035     32.26373  18.3893         35
 4.00   0.0099    206.6966    549.0604     3523.739      43.5463 -49.71     1.513     1.492      2.727     32.27104  19.1825         36
 4.11   0.0100    212.1412   1306.0922     3498.926      43.5463  48.60     1.503     1.492      2.725     32.27104  19.1902         37
 5.41   0.0055    230.1308    562.3044     6383.248      43.5463 -39.65     3.208     3.006      8.942     32.27835  18.5374         38
 5.63   0.0333    210.9195    684.8603     1051.191      43.5463 -65.24     1.213     1.116      3.468     32.27835  20.4958         39
 3.50   0.0002    259.7673    997.4636     230701.4      43.5463 -49.22     2.326     2.227      2.915     32.29297  14.6424         40
 3.86   0.0087    223.9153   1226.0546     4016.387      43.5463  26.73     1.504     1.485      2.666     32.27104  19.0404         41
 4.85   0.0256    222.5792    774.9357     1370.132      43.5463 -38.99     1.212     1.165      2.561     32.30393  20.2081         42
 3.50   0.0002    265.9208     67.5955     170427.6      43.5463 -49.39     2.265     2.196      2.861     32.29663  14.9711         43
 5.43   0.0129    243.9537    112.8670     2712.027      43.5463 -87.80     1.944     1.539      5.190     32.28932  19.4668         44
 4.72   0.0051    255.4751    612.9941     6915.357      43.5463 -39.55     2.421     2.015      5.525     32.31124  18.4505         45
 6.41   0.0308    239.3534    838.8110     1138.402      43.5463  -5.01     1.207     1.103      3.986     32.30028  20.4093         46
 7.10   0.0321    250.5009    107.5042     1092.398      43.5463 -43.09     1.109     0.854      4.483     32.26738  20.4540         47
 3.50   0.0009    287.5338   1486.4602     40261.01      43.5463 -51.40     2.024     1.972      2.890     32.27835  16.5378         48
 3.59   0.0039    281.9197   1522.3905     8891.068      43.5463 -19.94     1.694     1.647      2.739     32.29297  18.1776         49
 6.53   0.0391    270.8847   1273.6149     898.0447      43.5463  14.10     1.033     0.744      3.414     32.29297  20.6668         50
 3.50   0.0012    303.1575    201.7498     29475.42      43.5463 -49.83     1.952     1.913      2.795     32.30028  16.8763         51
 6.10   0.0209    293.2261   1475.8163     1675.064      43.5463 -40.46     1.240     1.134      4.016     32.29663  19.9899         52
 4.59   0.0219    302.2395    563.7120     1604.136      43.5463  21.58     1.338     1.245      2.899     32.28566  20.0369         53
 8.77   0.0748    292.5020    248.4889     468.2044      43.5463 -46.51     0.501     0.499      2.722     32.26007  21.3739         54
 3.50   0.0018    322.0915    697.3416     19571.07      43.5463 -10.33     1.848     1.812      2.762     32.27104  17.3210         55
 7.71   0.0329    308.7028     85.3052     1064.736      43.5463  46.83     0.969     0.765      4.601     32.26007  20.4819         56
 6.02   0.0213    321.8692    641.5228     1647.247      43.5463 -65.00     1.773     1.200      4.617     32.27104  20.0081         57
 5.05   0.0093    327.5058    595.4429     3780.971      43.5463  10.57     1.724     1.717      4.568     32.26373  19.1060         58
 5.89   0.0558    329.2318   1546.0073     628.8723      43.5463 -87.79     0.902     0.759      2.648     32.30028  21.0536         59
 5.72   0.0416    332.2732     93.4231     843.3154      43.5463  16.80     0.992     0.954      2.579     32.30028  20.7350         60
 3.50   0.0017    368.3845    760.8975     20263.22      43.5463 -45.12     2.558     1.841      2.995     32.28566  17.2832         61
 4.69   0.0188    350.0923     54.7249     1868.261      43.5463 -36.82     1.357     1.328      2.843     32.27104  19.8714         62
 3.93   0.0097    361.1682   1500.3911     3610.473      43.5463 -15.61     1.577     1.452      2.931     32.29663  19.1561         63
 3.50   0.0004    395.2360    231.4487     99069.59      43.5463 -60.98     2.186     2.116      2.844     32.30028  15.5601         64
 5.51   0.0403    360.5753   1033.9026     869.9754      43.5463 -13.57     1.158     0.962      2.470     32.27835  20.7012         65
 7.31   0.0506    370.4859     71.9584     692.9086      43.5463 -87.89     0.815     0.701      3.418     32.28566  20.9483         66
 6.35   0.0410    373.5033   1083.8605     855.4159      43.5463 -17.55     1.103     0.982      3.834     32.27104  20.7196         67
 6.43   0.1056    380.6082      1.4856     253.7203      43.5463 -89.71     1.605     0.500      4.556     24.66536  22.0391         68
 3.50   0.0025    397.0699   1461.1993     14092.77      43.5463 -74.23     1.779     1.761      2.781     32.30759  17.6775         69
 3.50   0.0022    398.1953    354.6356     16067.77      43.5463 -38.67     1.844     1.807      2.767     32.29663  17.5351         70
 8.23   0.1228    375.6642     87.3029     285.3879      43.5463  46.67     0.565     0.339      2.163     32.28201  21.9114         71
 6.56   0.0549    380.1645    125.8450     639.1247      43.5463  44.75     0.820     0.679      2.451     32.30759  21.0360         72
 4.11   0.0106    393.8165   1088.7810     3323.743      43.5463 -37.44     1.519     1.447      2.684     32.29297  19.2459         73
 8.74   0.0625    382.4934     67.5072     560.5506      43.5463 -45.03     0.504     0.496      3.026     32.26007  21.1785         74
 8.20   0.1094    388.6971   1195.3385     320.4896      43.5463  43.22     0.566     0.339      2.316     32.27104  21.7855         75
 6.05   0.0591    412.0412      1.7690     463.1228      43.5463 -89.92     2.513     0.700      5.569     25.18608  21.3858         76
 7.56   0.0244    397.0254    626.6956     1433.928      43.5463 -65.30     1.341     1.083      5.585     32.28201  20.1587         77
 7.93   0.0364    403.4896    526.4983     962.9562      43.5463  89.32     1.090     0.500      4.277     32.26007  20.5910         78
 7.01   0.0782    407.0443    282.2940     447.9101      43.5463  89.42     0.737     0.674      2.540     32.26373  21.4220         79
 3.50   0.0011    437.9754    252.0879     32304.01      43.5463 -73.79     1.987     1.960      2.789     32.28932  16.7769         80
 3.50   0.0001    461.0806    807.6478     279863.7      43.5463 -61.03     2.345     2.265      2.922     32.28201  14.4326         81
 5.82   0.0184    420.8114    159.0276     1908.676      43.5463  31.01     1.646     1.399      4.497     32.29663  19.8482         82
 7.46   0.0799    419.5259   1580.4933     438.7266      43.5463  42.63     0.503     0.496      2.531     32.27104  21.4445         83
 4.09   0.0139    432.9641   1422.0618     2515.105      43.5463  10.78     1.426     1.390      2.756     32.29297  19.5486         84
 6.56   0.0337    426.6788   1179.2426     1041.031      43.5463   4.87     1.217     0.942      4.168     32.28566  20.5063         85
 6.30   0.0006    426.7638    432.9953     54077.71      43.5463  -1.33     2.306     0.724      4.546     32.29663  16.2175         86
 7.97   0.1105    426.3199    299.6852     317.1122      43.5463  45.26     0.563     0.340      2.018     32.27104  21.7970         87
 5.15   0.0348    434.2638    151.1026     1008.098      43.5463 -22.15     1.134     1.029      2.848     32.28201  20.5412         88
 3.83   0.0034    450.3487     21.3388     10241.18      43.5463 -48.98     1.765     1.732      2.809     32.28201  18.0241         89
 4.97   0.0041    467.8039    850.5261     8597.633      43.5463  22.58     7.410     2.036     14.395     32.31124  18.2141         90
 9.78   0.0313    430.5058    718.5177     1120.361      43.5463  46.24     0.503     0.497      3.018     32.27104  20.4266         91
 4.44   0.0329    439.9993    305.8438     1065.727      43.5463  43.70     1.155     1.138      2.471     32.30759  20.4809         92
 3.72   0.0030    457.8458     34.5835     11529.26      43.5463 -52.57     1.776     1.744      2.780     32.30028  17.8955         93
 5.37   0.0203    445.1875    122.3629      1729.14      43.5463 -18.75     1.407     1.262      3.646     32.30028  19.9554         94
 7.36   0.0753    443.7620    655.0262     465.9074      43.5463   1.24     0.687     0.426      2.401     32.30028  21.3792         95
 4.21   0.0095    463.6682    468.6435     3671.993      43.5463  53.82     1.598     1.540      2.911     32.28932  19.1377         96
 6.17   0.0680    452.9252   1533.0214     515.7755      43.5463 -29.49     0.791     0.773      2.513     32.30393  21.2688         97
 5.02   0.0306    461.0328   1096.1024     1144.785      43.5463  25.35     1.186     1.122      2.744     32.26373  20.4032         98
 3.93   0.0077    472.1450    734.9465     4549.541      43.5463  81.94     1.560     1.476      2.699     32.28932  18.9051         99
 4.57   0.0110    471.3524    254.2341     3187.061      43.5463 -43.46     1.496     1.431      2.950     32.30028  19.2915        100
 7.57   0.0414    461.8461    724.7260     845.7894      43.5463 -20.19     0.947     0.682      3.859     32.27835  20.7318        101
 3.65   0.0060    477.9322    923.0837      5827.44      43.5463 -33.10     1.669     1.599      2.666      32.2747  18.6363        102
 4.25   0.0160    477.2760   1276.4293     2191.245      43.5463 -44.94     1.341     0.920      2.934     32.28932  19.6983        103
 5.70   0.0255    488.8282    839.6331     1374.464      43.5463  88.79     2.086     0.973      4.755     32.29663  20.2047        104
 4.03   0.0146    484.0666   1070.6798     2399.072      43.5463 -55.90     1.426     1.366      2.540     32.27104  19.5999        105
 6.55   0.0951    476.0097   1168.3048     368.6183      43.5463  86.99     0.730     0.675      2.495     32.28201  21.6336        106
 5.24   0.0079    496.2249     82.9241     4418.685      43.5463  67.05     2.294     2.075      6.101     32.29297  18.9368        107
 6.75   0.0573    478.8782    682.8464     611.9283      43.5463 -45.71     0.818     0.680      2.828     32.27835  21.0832        108
 5.08   0.0084    495.6584   1186.8361     4172.876      43.5463 -15.84     2.977     1.887      6.745     32.29663  18.9989        109
 5.01   0.0137    504.2094    762.9064     2568.368      43.5463 -89.47     1.764     1.674      4.924     32.28566  19.5259        110
 4.68   0.0234    501.9949    863.7543     1499.146      43.5463   0.62     1.253     1.182      2.648     32.30759  20.1104        111
 4.47   0.0067    515.3533   1461.0763       5243.8      43.5463  24.01     4.103     1.634      7.492      32.2747  18.7509        112
 5.91   0.0562    498.0129    366.2479     624.6573      43.5463  -0.58     0.922     0.749      2.473     32.30393  21.0609        113
 6.00   0.0226    509.9556    165.0489     1550.598      43.5463 -10.41     1.837     1.020      4.750     32.30028  20.0738        114
 4.78   0.0237    513.9047   1179.2246     1476.654      43.5463  -5.57     1.244     1.182      2.748     32.28201  20.1268        115
 5.35   0.0317    519.1333    641.9204      1104.04      43.5463  20.46     1.195     1.114      3.302     32.27104  20.4425        116
 6.42   0.0726    518.1923   1519.1840     483.0697      43.5463  46.10     0.759     0.567      2.614      32.2747  21.3400        117
 4.07   0.0102    540.2014    999.9447     3439.505      43.5463  -7.60     1.478     1.467      2.704     32.31854  19.2088        118
 6.33   0.0412    536.3397    404.5272     851.3159      43.5463  39.13     1.182     0.788      3.488     32.27835  20.7248        119
 3.79   0.0074    558.9291   1041.7891     4743.069      43.5463   0.03     1.618     1.552      2.797     32.31124  18.8598        120
 4.65   0.0103    571.2954     45.8589     3387.238      43.5463  48.88     2.091     1.515      4.323     32.27104  19.2254        121
 5.98   0.0862    555.8099    778.7978     406.5166      43.5463  45.31     0.757     0.566      2.126     32.28201  21.5273        122
 3.50   0.0018    580.7115    144.9684     19358.35      43.5463 -70.14     1.859     1.826      2.760     32.28566  17.3328        123
 4.50   0.0112    571.3770   1447.8510     3146.204      43.5463  19.22     2.289     1.667      5.322     32.30759  19.3055        124
 5.72   0.0392    565.1072    139.5361     894.4451      43.5463 -68.23     1.046     0.976      3.014     32.28201  20.6711        125
 4.21   0.0037    596.6942    782.6355     9438.456      43.5463 -64.90     3.326     3.088      7.912     32.27104  18.1127        126
 3.50   0.0018    582.2111    319.2451     19327.01      43.5463   2.55     1.852     1.810      2.792     32.29663  17.3346        127
 6.15   0.0304    576.3021   1001.8055      1152.14      43.5463  28.92     1.220     1.022      3.748     32.28201  20.3962        128
 4.56   0.0267    584.5316     76.0103     1315.062      43.5463  -8.04     1.204     1.139      2.581     32.31124  20.2526        129
 4.04   0.0157   1001.5208   1555.4537     2238.073      43.5463  52.13     1.345     1.320      2.654      32.2747  19.6753        130
 4.65   0.0165   1597.6199    654.7779      1831.64      43.5463   2.77     1.652     1.432      3.980     27.75371  19.8929        131
 5.04   0.0291   1594.7402    374.1065     1164.599      43.5463  43.35     1.308     1.019      3.372     31.21159  20.3846        132
 3.98   0.0129   1584.9110   1108.9387     2722.563      43.5463 -13.63     1.428     1.352      2.769     32.27835  19.4626        133
 6.67   0.0540   1585.9336   1069.5111     649.2068      43.5463 -89.02     0.781     0.500      2.527     32.27835  21.0190        134
 3.53   0.0051   1541.8699    135.1601     6909.936      43.5463  70.30     1.663     1.606      2.666     32.29297  18.4513        135
 4.63   0.0411   1514.6406    483.6134     852.6341      43.5463 -43.54     1.049     0.948      2.460     32.29663  20.7231        136
 4.31   0.0402    912.4411   1001.0433     873.0629      43.5463   2.65     1.099     0.958      2.328     32.30393  20.6974        137
 3.50   0.0027    900.4877    302.8330     12818.97      43.5463  49.85     1.765     1.762      2.757     32.28932  17.7804        138
