#   1 KRON_RADIUS            Kron apertures in units of A or B                         
#   2 MAGERR_APER            RMS error vector for fixed aperture mag.                   [mag]
#   3 Y_IMAGE                Object position along y                                    [pixel]
#   4 X_IMAGE                Object position along x                                    [pixel]
#   5 THETA_IMAGE            Position angle (CCW/x)                                     [deg]
#   6 FLUX_APER              Flux vector within fixed circular aperture(s)              [count]
#   7 A_IMAGE                Profile RMS along major axis                               [pixel]
#   8 THRESHOLD              Detection threshold above background                       [count]
#   9 B_IMAGE                Profile RMS along minor axis                               [pixel]
#  10 FLUX_RADIUS            Fraction-of-light radii                                    [pixel]
#  11 FLUXERR_APER           RMS error vector for aperture flux(es)                     [count]
#  12 MAG_APER               Fixed aperture magnitude vector                            [mag]
#  13 NUMBER                 Running object number                                     
 3.50   0.0000     52.4330     61.7851  -1.53     27974.71     6.647           15     6.022      8.355  0.001410473  16.9331          1
 3.50   0.0000     58.9505   1076.9386  81.87      39826.7     2.119           15     1.993      1.490  0.001409995  16.5496          2
 3.50   0.0000     15.7535    983.4631 -88.04     4454.577     4.568           15     2.012      5.208  0.001409835  18.9280          3
 3.50   0.0000     16.2663    382.9737 -60.13     358.5968     1.470           15     1.238      1.195  0.001410473  21.6635          4
 3.50   0.0000     17.0164     89.4733 -38.81     4216.073     1.668           15     1.628      0.989  0.001411271  18.9877          5
 3.50   0.0000     13.8116   1444.2358 -43.73     11056.44     1.732           15     1.705      1.273  0.001410633  17.9410          6
 4.25   0.0000     13.2794    839.4593 -64.29     145.1285     1.755           15     1.135      3.122  0.001409835  22.6456          7
 3.50   0.0000      9.1434   1182.2228 -58.17     164.5337     1.088           15     1.052      1.290  0.001410952  22.5094          8
 3.50   0.0000      5.7230   1467.8273  -3.91     63.66346     1.183           15     0.926      2.013  0.001341284  23.5403          9
 4.00   0.0000      3.6141    143.2476  67.80     142.9064     1.689           15     1.561      1.985  0.001226654  22.6624         10
 5.03   0.0000      3.6377    183.7684 -16.02     43.52863     1.193           15     0.959      2.812  0.001228304  23.9531         11
 6.83   0.0001      2.4338    843.2668  19.71     18.22458     0.732           15     0.456      2.028  0.001147601  24.8984         12
 6.06   0.0001      1.8042    302.4686   3.74     13.28606     0.943           15     0.716      3.603  0.001101574  25.2415         13
 3.78   0.0000     23.8595    365.4591   4.31     803.2453     1.406           15     1.341      0.900  0.001409675  20.7879         14
 3.50   0.0000     23.0221    381.4540  24.11     237.9951     1.355           15     1.214      1.334  0.001410952  22.1086         15
 3.50   0.0000     17.3073   1213.4205  41.48     74.82295     0.956           15     0.859      0.984  0.001409995  23.3649         16
 3.50   0.0000     14.7703   1561.4890  -0.83     95.11745     0.945           15     0.720      1.265  0.001409835  23.1043         17
 5.13   0.0000     15.4900    192.9881  -3.42      50.4948     0.788           15     0.499      1.403  0.001410154  23.7919         18
 3.50   0.0000     33.1031   1108.5421  62.13     370.8696     2.061           15     1.306      2.858  0.001409196  21.6269         19
 5.07   0.0000     22.8381    696.7360  14.91     123.3159     0.927           15     0.843      1.287  0.001410314  22.8225         20
 5.64   0.0000     20.9432    212.0454 -45.15     40.09127     0.892           15     0.530      1.398  0.001410154  24.0424         21
 4.02   0.0000     24.2986   1451.6597 -46.75     53.40834     1.018           15     0.855      1.180  0.001409196  23.7310         22
 4.67   0.0000     32.4480    325.0097 -26.15     236.2447     1.563           15     1.264      1.998  0.001410952  22.1166         23
 6.92   0.0000     24.8343    529.8266  45.19     57.14704     0.759           15     0.567      1.418  0.001410473  23.6575         24
 6.71   0.0000     25.9111    701.3083  17.52     62.95041     0.916           15     0.682      2.976  0.001409037  23.5525         25
 5.31   0.0000     33.6394     14.6521  53.71     104.5491     0.979           15     0.853      1.355  0.001410473  23.0017         26
 3.50   0.0000     37.0468   1519.9733 -74.83     226.0977     1.084           15     1.067      1.322  0.001410952  22.1643         27
 4.62   0.0000     43.2929    438.5793 -53.91     212.8022     1.729           15     1.304      2.607  0.001409995  22.2301         28
 3.50   0.0000     38.0196   1169.1295  12.61     198.0202     1.289           15     1.179      1.341  0.001411111  22.3082         29
 3.50   0.0000     79.0623    535.8591 -63.07     35687.62     1.999           15     1.965      1.486  0.001409675  16.6687         30
 3.80   0.0000     41.4935    913.7980 -64.45     236.5097     1.227           15     1.051      1.156  0.001409835  22.1154         31
 7.06   0.0000     33.9667   1066.4921  58.09     39.47933     0.803           15     0.311      1.817  0.001409516  24.0591         32
 3.50   0.0000     38.6000   1224.6489 -30.78     95.64603     1.228           15     0.776      1.154  0.001411271  23.0983         33
 3.98   0.0000     49.4767    263.4285 -82.12     151.0495     1.552           15     1.130      1.959  0.001410154  22.6022         34
 4.64   0.0000     42.6057    226.7916  40.20     46.23542     1.079           15     0.654      1.424  0.001409995  23.8876         35
 6.74   0.0001     39.4747   1126.5171 -43.85     16.59248     0.504           15     0.495      1.548  0.001409356  25.0002         36
 3.79   0.0000     41.4937   1000.3300  -1.36      44.3103     1.054           15     0.499      1.137  0.001409516  23.9337         37
 3.50   0.0000     46.5432   1429.2083  87.55     63.67684     0.923           15     0.722      1.268   0.00141143  23.5400         38
 6.67   0.0000     45.7285    473.0389 -10.42     46.22233     0.733           15     0.681      2.201  0.001410314  23.8879         39
 3.50   0.0000     49.4534   1433.9270   9.10     216.1707     1.096           15     0.936      1.275  0.001409675  22.2130         40
 5.18   0.0000     46.8039    664.5821  -3.69     114.7764     0.953           15     0.724      2.637  0.001409835  22.9004         41
 6.15   0.0000     50.2181    119.8695  39.13     96.35544     0.807           15     0.669      1.873  0.001410952  23.0903         42
 8.27   0.0000     49.3352    879.6919  46.34     84.62798     0.567           15     0.339      2.040  0.001409995  23.2312         43
 3.50   0.0000     74.1091    126.4795 -33.04     1749.683     1.503           15     1.437      1.074  0.001409356  19.9426         44
 5.86   0.0000     58.9934    469.1689  53.55     60.62814     0.918           15     0.474      1.775  0.001410473  23.5933         45
 3.50   0.0000     65.0521   1146.3165  -0.29     126.3115     1.444           15     1.193      1.602  0.001409356  22.7964         46
 5.64   0.0001     57.5757   1240.1871 -21.10     28.86333     0.749           15     0.444      1.303  0.001410154  24.3991         47
 4.17   0.0000     65.6561   1514.5503 -81.65     35.55384     0.917           15     0.484      1.218  0.001410154  24.1728         48
 4.99   0.0000     66.6765   1414.3184 -42.10       35.443     1.020           15     0.862      1.741  0.001409835  24.1762         49
 7.28   0.0000     68.4343     17.8153  78.11     117.4115     1.055           15     0.885      4.037  0.001410473  22.8757         50
 3.50   0.0000     70.9527   1320.7626 -65.92     71.41626     1.010           15     0.818      1.175  0.001410633  23.4155         51
 8.63   0.0000     75.6857     80.4453 -38.45     197.5805     1.551           15     0.939      9.111  0.001409995  22.3106         52
 3.50   0.0000    120.9301    787.4855 -53.39     53124.23     2.055           15     2.021      1.511  0.001409196  16.2368         53
 3.50   0.0000     81.3387    419.7172 -81.40     316.4427     1.587           15     1.314      1.504  0.001409516  21.7993         54
 3.84   0.0000     89.6813    375.3947 -15.16     665.6227     2.397           15     2.065      3.593  0.001410473  20.9919         55
 7.72   0.0000     73.9792    732.2733  88.65     63.07555     0.662           15     0.446      2.256  0.001411111  23.5503         56
 3.50   0.0000     95.5787     54.3880  31.88     2567.758     1.639           15     1.612      0.944  0.001410154  19.5261         57
 3.50   0.0000     78.5913   1031.9655  -4.49     56.10441     1.095           15     0.928      1.053  0.001410633  23.6775         58
 7.43   0.0000     73.6413   1255.6760 -46.35     47.21249     0.584           15     0.329      1.437  0.001409995  23.8649         59
 6.48   0.0000     82.9982    930.8804  35.38     116.2558     1.250           15     0.967      2.569  0.001410473  22.8865         60
 5.35   0.0000     87.5067    757.2294  64.46     180.8687     1.285           15     1.195      1.679  0.001409835  22.4066         61
 3.79   0.0000     86.9773   1358.2859 -79.17     89.71198     1.119           15     0.894      1.447  0.001410314  23.1679         62
 6.23   0.0000     86.7000    862.2626 -36.18     109.5264     1.407           15     0.998      2.076  0.001409516  22.9512         63
 5.33   0.0000    141.2934    884.3462  52.27     141.0568     2.182           15     1.014      4.060  0.001409516  22.6765         64
 5.03   0.0000     90.7042   1043.9059  53.72     61.29022     1.594           15     0.914      1.466  0.001408717  23.5815         65
 3.50   0.0000     90.6289    494.1025 -78.53     234.1405     1.205           15     1.125      0.929  0.001409356  22.1263         66
 6.27   0.0000     87.7103    810.8326 -66.09     61.58473     0.934           15     0.667      2.474  0.001409835  23.5763         67
 6.08   0.0000     85.0338   1559.0720  45.28     49.95813     0.911           15     0.525      1.779  0.001410314  23.8035         68
 6.91   0.0000     85.7778    923.1917 -46.11     69.82076     0.760           15     0.561      2.028  0.001410154  23.4400         69
 3.79   0.0000     97.1720    451.1183 -15.24      469.882     2.158           15     1.288      2.438  0.001410314  21.3700         70
 3.75   0.0000     94.2044    387.5457   0.79     111.6973     0.925           15     0.726      1.299   0.00141143  22.9299         71
 5.99   0.0000     95.9941    559.7446 -89.68     65.15583     0.676           15     0.436      1.441   0.00141159  23.5151         72
 7.61   0.0000     93.6627    870.6544 -44.67     54.29582     0.584           15     0.329      1.524  0.001409835  23.7131         73
 5.82   0.0000    101.7271    517.3472  34.32     91.21638     1.114           15     0.881      1.940  0.001409675  23.1498         74
 4.54   0.0000    107.3400    861.3597  41.72     93.78168     0.978           15     0.859      0.960  0.001410473  23.1197         75
 4.59   0.0000    114.3043    414.1663 -68.21     134.9355     1.226           15     1.013      1.272  0.001409356  22.7247         76
 5.58   0.0000    106.9801   1420.9814 -40.64     55.20346     0.798           15     0.763      1.474  0.001410314  23.6951         77
 6.57   0.0000    106.4793    180.0427  -2.31     64.84893     0.780           15     0.499      1.384  0.001409835  23.5202         78
 3.51   0.0000    109.9083   1513.3596  20.21     40.00792     0.884           15     0.681      1.052  0.001409196  24.0446         79
 3.50   0.0000    116.1240    989.4617 -58.20     80.48284     1.138           15     1.019      1.482  0.001409516  23.2857         80
 4.21   0.0000    116.2476     65.0520  14.02     178.9791     1.548           15     1.061      1.367  0.001410633  22.4180         81
 3.50   0.0000    116.7219    152.4536 -86.25     133.2595     1.123           15     0.971      1.007  0.001409516  22.7383         82
 4.01   0.0000    117.6549    911.8856 -66.63     78.97981     0.935           15     0.682      1.969  0.001409675  23.3062         83
 3.64   0.0000    125.2984    492.6189  -0.32     142.2798     1.665           15     1.219      2.109  0.001409675  22.6671         84
 3.50   0.0000    161.4541   1466.8248 -58.74     32927.48     1.941           15     1.902      1.474  0.001411111  16.7561         85
 7.32   0.0001    118.4848   1400.5156 -45.05     24.07016     0.503           15     0.497      1.567  0.001408877  24.5963         86
 4.30   0.0000    130.2065    416.2744  57.73     151.3878     1.100           15     1.057      1.044  0.001411111  22.5998         87
 3.50   0.0000    127.2841   1476.9161  64.33      63.8269     0.882           15     0.673      1.131  0.001409196  23.5375         88
 3.66   0.0000    128.3044    884.3072  39.90     110.3274     0.974           15     0.855      1.401  0.001408877  22.9433         89
 8.22   0.0000    129.4937    461.4671  79.24     47.24627     0.500           15     0.499      1.920  0.001409516  23.8641         90
 7.97   0.0000    134.2148     97.6237 -71.27     42.14458     0.773           15     0.439      1.419  0.001409995  23.9881         91
 6.93   0.0001    134.2994   1274.6626  43.05     28.12491     0.564           15     0.340      1.557  0.001409675  24.4273         92
 5.52 3862.9807    138.1961   1599.6533 -73.31        3e-07     0.751           15     0.443      3.044  0.001067122  44.3572         93
 3.50   0.0000    169.2865    875.6407 -68.74     9927.313     1.816           15     1.770      1.143  0.001409995  18.0579         94
 3.50   0.0000    150.7619   1278.9016  88.63     198.0506     1.163           15     1.081      1.357  0.001408877  22.3081         95
 3.72   0.0000    164.2101   1444.3116  58.08     682.5138     1.478           15     1.334      1.262  0.001410314  20.9647         96
 3.50   0.0000    154.5426     80.6307 -48.09     139.5305     1.063           15     0.915      1.078  0.001410792  22.6883         97
 4.37   0.0000    155.2148   1578.5200  33.04     73.89584     0.963           15     0.777      1.170  0.001410792  23.3784         98
 4.42   0.0000    164.9884    574.8645  77.32     120.7314     1.398           15     1.054      1.595  0.001411111  22.8454         99
 5.40   0.0000    154.6382    822.7685 -65.92     35.63378     0.715           15     0.649      1.502  0.001410633  24.1703        100
 3.50   0.0000    165.7110    102.5932 -26.53     586.6597     1.316           15     1.213      1.010  0.001409835  21.1290        101
 6.06   0.0000    159.1147    491.3987   9.60     70.31934     1.137           15     0.669      2.534  0.001410154  23.4323        102
 3.98   0.0000    168.5005   1367.4280  -3.63     173.4819     1.273           15     1.097      1.257  0.001409356  22.4519        103
 4.33   0.0000    167.9214    649.5801  10.30     128.6982     1.346           15     1.111      1.266  0.001410473  22.7761        104
 3.88   0.0000    179.2475    573.4441  24.34     360.0674     1.806           15     1.458      2.086  0.001410633  21.6590        105
 7.05   0.0000    168.5139    168.5129  44.91     63.17926     0.504           15     0.496      1.727  0.001409196  23.5486        106
 7.80   0.0000    172.5058     30.4449  54.32     41.92658     0.503           15     0.494      1.737  0.001409196  23.9938        107
 3.50   0.0000    258.9322    995.8043 -40.78      86268.3     2.197           15     2.091      1.570  0.001411111  15.7104        108
 3.68   0.0000    191.7790   1349.0507 -29.04     910.6205     1.434           15     1.382      1.264  0.001410633  20.6517        109
 4.98   0.0000    185.8884   1353.4352 -60.76      288.894     1.564           15     1.434      1.421  0.001409995  21.8982        110
 6.84   0.0000    182.3312     58.4811 -53.73     88.22539     0.998           15     0.697      2.052  0.001409675  23.1860        111
 6.21   0.0000    186.4667    834.7823 -22.86     61.74221     1.172           15     0.796      2.659  0.001410633  23.5735        112
 3.50   0.0000    209.8897    826.0682  -8.26     3043.324     5.062           15     2.311      6.545  0.001409516  19.3416        113
 7.38   0.0000    183.4921    493.5126  45.65     51.61012     0.502           15     0.498      1.551  0.001409037  23.7682        114
 3.62   0.0000    229.0160    560.6641 -22.76     2783.594     4.037           15     3.709      7.024  0.001410473  19.4385        115
 3.50   0.0000    205.7506    547.4508  51.32      1810.05     1.491           15     1.485      0.944  0.001410952  19.9058        116
 3.50   0.0000    264.9563     65.7550 -47.06     65206.04     2.161           15     2.086      1.535  0.001410792  16.0143        117
 5.54   0.0000    194.7835    447.7415 -54.85     120.5159     1.067           15     0.894      1.243  0.001410473  22.8474        118
 3.50   0.0000    211.4027   1304.6294 -28.12     1704.765     1.498           15     1.454      1.082  0.001409995  19.9708        119
 3.88   0.0000    209.9436    683.1042 -79.14     426.9042     1.698           15     1.384      1.532  0.001409196  21.4742        120
 6.49   0.0000    204.5183    935.3228 -12.20     89.47326     1.134           15     0.832      1.617  0.001409835  23.1708        121
 3.66   0.0000    204.7073    182.1929 -25.95     97.62211     1.088           15     0.881      1.553  0.001409995  23.0761        122
 5.02   0.0000    205.1469    940.4786   2.45     111.1056     0.957           15     0.726      1.018  0.001409516  22.9357        123
 3.50   0.0000    223.2675   1224.6123  77.27     2077.342     1.482           15     1.452      1.057  0.001411111  19.7562        124
 3.50   0.0000    208.2826   1224.1099  -9.72     133.9533     1.086           15     0.922      1.199  0.001409516  22.7326        125
 5.60   0.0000    216.7452    881.1793 -58.27     91.00408     1.992           15     0.918      3.153  0.001410792  23.1523        126
 4.87   0.0000    216.7865    739.7549 -45.18     193.5553     1.731           15     1.248      2.843  0.001410473  22.3330        127
 3.50   0.0000    221.6765    773.3259 -20.01     667.8486     1.345           15     1.265      1.038  0.001409516  20.9883        128
 6.22   0.0000    214.2040    791.6286 -30.93      74.0823     1.057           15     0.805      1.741  0.001410154  23.3757        129
 3.71   0.0000    243.0105    111.1027 -86.87      1113.36     2.419           15     1.752      2.296  0.001409675  20.4334        130
 3.83   0.0000    254.5513    611.2030 -40.46     2890.822     2.890           15     2.353      2.334  0.001411111  19.3974        131
 5.94   0.0000    229.3252    546.4078 -52.26     137.3571     1.514           15     1.120      2.363  0.001410952  22.7054        132
 7.38   0.0000    220.5160   1401.4563  63.36     47.77586     0.500           15     0.498      1.804  0.001409516  23.8520        133
 3.50   0.0000    238.3811    837.2602  -1.16     361.1116     1.874           15     1.611      1.673  0.001410473  21.6559        134
 3.50   0.0000    231.9676   1551.6797 -22.09     71.71103     0.883           15     0.678      1.097  0.001409995  23.4110        135
 3.88   0.0000    238.9686   1477.4473 -68.21     78.73189     1.283           15     0.919      1.344  0.001410952  23.3096        136
 4.96   0.0000    249.4536    105.7775 -19.28     303.5542     1.432           15     1.278      1.148  0.001410952  21.8444        137
 4.78   0.0000    247.8289   1412.9543  45.09     86.18565     1.290           15     1.085      1.707  0.001410952  23.2114        138
