#   1 KRON_RADIUS            Kron apertures in units of A or B                         
#   2 MAGERR_APER            RMS error vector for fixed aperture mag.                   [mag]
#   3 Y_IMAGE                Object position along y                                    [pixel]
#   4 X_IMAGE                Object position along x                                    [pixel]
#   5 FLUX_APER              Flux vector within fixed circular aperture(s)              [count]
#   6 THRESHOLD              Detection threshold above background                       [count]
#   7 THETA_IMAGE            Position angle (CCW/x)                                     [deg]
#   8 A_IMAGE                Profile RMS along major axis                               [pixel]
#   9 B_IMAGE                Profile RMS along minor axis                               [pixel]
#  10 FLUX_RADIUS            Fraction-of-light radii                                    [pixel]
#  11 FLUXERR_APER           RMS error vector for aperture flux(es)                     [count]
#  12 MAG_APER               Fixed aperture magnitude vector                            [mag]
#  13 NUMBER                 Running object number                                     
 4.17   0.0000     53.2565     63.6428     82101.77      43.5463   1.98     5.123     4.572      8.049   0.01778184  15.7641          1
 3.87   0.0000     16.4784    985.0769     13082.96      43.5463 -88.62     4.214     1.929      5.146   0.01777982  17.7582          2
 3.94   0.0000     18.0460     91.3107     12383.04      43.5463 -21.89     1.737     1.698      0.983    0.0177758  17.8179          3
 3.50   0.0000     14.6388   1445.7582     32473.91      43.5463 -57.14     1.867     1.780      1.090   0.01778989  16.7712          4
 8.01   0.0000     10.3046   1183.6648     483.2557      43.5463  43.46     0.565     0.339      1.046   0.01777781  21.3396          5
 7.29   0.0000      4.4737    145.2111     417.1785      43.5463 -88.54     1.003     0.739      2.084   0.01612004  21.4992          6
 6.79   0.0000     17.2495    384.5198     1106.639      43.5463  14.89     0.994     0.963      1.012   0.01777781  20.4400          7
 5.10   0.0000     24.7656    367.2277     2359.214      43.5463 -21.08     1.302     1.279      0.850   0.01778586  19.6181          8
 3.50   0.0000     59.7884   1078.4711     117239.3      43.5463  81.96     2.254     2.134      1.495   0.01779793  15.3773          9
 8.47   0.0000     23.7820    383.3971     699.1652      43.5463 -72.10     0.757     0.452      1.401   0.01777982  20.9385         10
 6.25   0.0000     34.0507   1110.2819     1089.282      43.5463  62.34     1.556     0.820      2.715    0.0177758  20.4571         11
 7.75   0.0000     33.6917    326.9680      693.879      43.5463   4.05     0.746     0.680      2.005   0.01777781  20.9468         12
 5.80   0.0000     37.8551   1521.1614     665.1235      43.5463  46.17     0.829     0.669      0.903   0.01778787  20.9927         13
 7.09   0.0000     38.8824   1170.3628     580.9828      43.5463  19.36     0.930     0.690      1.185   0.01778586  21.1396         14
 5.89   0.0000     42.2124    915.4865     694.4655      43.5463   0.03     0.960     0.732      1.189   0.01778787  20.9459         15
 3.50   0.0000     80.1619    537.6298     104818.2      43.5463 -62.67     2.147     2.092      1.492   0.01778989  15.4989         16
 9.34   0.0000     44.4960    440.5079     624.0458      43.5463 -45.27     0.502     0.498      2.213   0.01776774  21.0620         17
 4.11   0.0000     75.1902    128.0414         5139      43.5463 -37.04     1.529     1.468      1.015   0.01778989  18.7728         18
 6.49   0.0000     82.2800    421.5060     929.4141      43.5463 -72.84     0.994     0.983      1.514   0.01777378  20.6295         19
 5.82   0.0000     90.8266    377.0053     1956.599      43.5463 -20.10     1.665     1.529      3.504   0.01778787  19.8212         20
 3.50   0.0000    121.8114    789.1776     156031.3      43.5463 -58.05     2.229     2.157      1.472   0.01778385  15.0670         21
 4.36   0.0000     96.6437     56.2313     7541.769      43.5463 -31.28     1.614     1.551      0.913   0.01779391  18.3563         22
 5.99   0.0000     98.0480    452.9695     1382.412      43.5463 -14.64     1.446     1.005      2.455   0.01779391  20.1984         23
 7.37   0.0000     91.5052    495.9703     687.6021      43.5463  -1.48     0.787     0.500      0.933   0.01777982  20.9567         24
 3.50   0.0000    162.3181   1468.3154      96711.4      43.5463 -54.27     2.107     2.045      1.388   0.01777378  15.5863         25
 6.96   0.0000    131.2889    418.0246     441.9734      43.5463   6.46     0.732     0.680      1.037   0.01778184  21.4365         26
 3.51   0.0000    170.3064    877.3268     29157.54      43.5463 -37.22     1.862     1.820      1.104    0.0177758  16.8881         27
 8.35   0.0000    151.4877   1280.4851     581.6949      43.5463 -45.63     0.501     0.498      1.015   0.01777378  21.1383         28
 5.42   0.0000    164.9675   1445.6466     2004.607      43.5463  15.16     1.301     1.188      0.869   0.01779391  19.7949         29
 4.31   0.0000    166.7818    104.4359      1723.08      43.5463 -17.88     1.262     1.144      0.963    0.0177919  19.9592         30
 6.36   0.0000    169.3399   1368.8975     509.5405      43.5463  67.99     0.912     0.688      1.100   0.01777177  21.2821         31
 7.84   0.0000    180.1621    574.8980     1057.937      43.5463  43.06     0.862     0.672      2.324   0.01776975  20.4888         32
 7.46   0.0000    186.6548   1354.9116     848.1443      43.5463  76.16     1.037     0.755      1.480    0.0177758  20.7288         33
 5.19   0.0000    192.5967   1350.5398     2676.267      43.5463 -13.63     1.363     1.306      1.002   0.01779793  19.4812         34
 4.70   0.0000    210.7428    827.6968     8934.325      43.5463  -6.18     3.876     2.046      6.527   0.01776975  18.1723         35
 4.00   0.0000    206.6966    549.0604     5316.303      43.5463 -49.71     1.513     1.492      0.821   0.01777378  18.7360         36
 4.11   0.0000    212.1412   1306.0922     5007.071      43.5463  48.60     1.503     1.492      0.836   0.01777378  18.8010         37
 5.41   0.0000    230.1308    562.3044     8190.372      43.5463 -39.65     3.208     3.006      7.428   0.01777781  18.2667         38
 5.63   0.0000    210.9195    684.8603     1253.858      43.5463 -65.24     1.213     1.116      1.491   0.01777781  20.3044         39
 3.50   0.0000    259.7673    997.4636     253378.9      43.5463 -49.22     2.326     2.227      1.583   0.01778586  14.5406         40
 3.86   0.0000    223.9153   1226.0546     6101.366      43.5463  26.73     1.504     1.485      0.619   0.01777378  18.5864         41
 4.85   0.0000    222.5792    774.9357      1961.54      43.5463 -38.99     1.212     1.165      0.914    0.0177919  19.8185         42
 3.50   0.0000    265.9208     67.5955     191516.8      43.5463 -49.39     2.265     2.196      1.543   0.01778787  14.8445         43
 5.43   0.0000    243.9537    112.8670     3270.646      43.5463 -87.80     1.944     1.539      2.330   0.01778385  19.2634         44
 4.72   0.0000    255.4751    612.9941     8487.349      43.5463 -39.55     2.421     2.015      2.376   0.01779592  18.2281         45
 6.41   0.0000    239.3534    838.8110     1060.622      43.5463  -5.01     1.207     1.103      1.536   0.01778989  20.4861         46
 7.10   0.0000    250.5009    107.5042     969.1417      43.5463 -43.09     1.109     0.854      1.046   0.01777177  20.5840         47
 3.50   0.0000    287.5338   1486.4602     57770.37      43.5463 -51.40     2.024     1.972      1.186   0.01777781  16.1457         48
 3.59   0.0000    281.9197   1522.3905     14143.02      43.5463 -19.94     1.694     1.647      0.926   0.01778586  17.6736         49
 6.53   0.0000    270.8847   1273.6149     975.1418      43.5463  14.10     1.033     0.744      1.093   0.01778586  20.5773         50
 3.50   0.0000    303.1575    201.7498     46024.09      43.5463 -49.83     1.952     1.913      1.235   0.01778989  16.3925         51
 6.10   0.0000    293.2261   1475.8163     1899.233      43.5463 -40.46     1.240     1.134      1.182   0.01778787  19.8536         52
 4.59   0.0000    302.2395    563.7120     2481.507      43.5463  21.58     1.338     1.245      1.082   0.01778184  19.5632         53
 8.77   0.0000    292.5020    248.4889     442.7182      43.5463 -46.51     0.501     0.499      1.154   0.01776774  21.4347         54
 3.50   0.0000    322.0915    697.3416     33311.84      43.5463 -10.33     1.848     1.812      1.122   0.01777378  16.7435         55
 7.71   0.0000    308.7028     85.3052     834.3304      43.5463  46.83     0.969     0.765      2.223   0.01776774  20.7467         56
 6.02   0.0000    321.8692    641.5228     1944.709      43.5463 -65.00     1.773     1.200      3.258   0.01777378  19.8279         57
 5.05   0.0000    327.5058    595.4429     4335.425      43.5463  10.57     1.724     1.717      1.244   0.01776975  18.9574         58
 5.89   0.0000    329.2318   1546.0073      1018.79      43.5463 -87.79     0.902     0.759      0.989   0.01778989  20.5298         59
 5.72   0.0000    332.2732     93.4231     1250.914      43.5463  16.80     0.992     0.954      1.032   0.01778989  20.3069         60
 3.50   0.0000    368.3845    760.8975     33467.18      43.5463 -45.12     2.558     1.841      1.186   0.01778184  16.7385         61
 4.69   0.0000    350.0923     54.7249     2822.589      43.5463 -36.82     1.357     1.328      0.961   0.01777378  19.4234         62
 3.93   0.0000    361.1682   1500.3911     5648.983      43.5463 -15.61     1.577     1.452      0.986   0.01778787  18.6701         63
 3.50   0.0000    395.2360    231.4487     116854.1      43.5463 -60.98     2.186     2.116      1.477   0.01778989  15.3809         64
 5.51   0.0000    360.5753   1033.9026     1337.364      43.5463 -13.57     1.158     0.962      0.919   0.01777781  20.2344         65
 7.31   0.0000    370.4859     71.9584     647.7134      43.5463 -87.89     0.815     0.701      1.185   0.01778184  21.0215         66
 6.35   0.0000    373.5033   1083.8605     1015.825      43.5463 -17.55     1.103     0.982      1.678   0.01777378  20.5330         67
 6.43   0.0001    380.6082      1.4856     180.9336      43.5463 -89.71     1.605     0.500      3.024   0.01358483  22.4062         68
 3.50   0.0000    397.0699   1461.1993     23312.72      43.5463 -74.23     1.779     1.761      1.066   0.01779391  17.1310         69
 3.50   0.0000    398.1953    354.6356     26411.77      43.5463 -38.67     1.844     1.807      1.083   0.01778787  16.9955         70
 8.23   0.0000    375.6642     87.3029     607.3015      43.5463  46.67     0.565     0.339      1.043   0.01777982  21.0915         71
 6.56   0.0000    380.1645    125.8450     854.0985      43.5463  44.75     0.820     0.679      1.161   0.01779391  20.7212         72
 4.11   0.0000    393.8165   1088.7810     5466.438      43.5463 -37.44     1.519     1.447      0.844   0.01778586  18.7057         73
 8.74   0.0000    382.4934     67.5072     699.0035      43.5463 -45.03     0.504     0.496      1.170   0.01776774  20.9388         74
 8.20   0.0000    388.6971   1195.3385     534.2877      43.5463  43.22     0.566     0.339      1.097   0.01777378  21.2306         75
 6.05   0.0000    412.0412      1.7690     413.0603      43.5463 -89.92     2.513     0.700      4.610   0.01387163  21.5100         76
 7.56   0.0000    397.0254    626.6956     1726.158      43.5463 -65.30     1.341     1.083      4.599   0.01777982  19.9573         77
 7.93   0.0000    403.4896    526.4983     743.1595      43.5463  89.32     1.090     0.500      2.666   0.01776774  20.8723         78
 7.01   0.0000    407.0443    282.2940     649.3495      43.5463  89.42     0.737     0.674      0.995   0.01776975  21.0188         79
 3.50   0.0000    437.9754    252.0879     50658.84      43.5463 -73.79     1.987     1.960      1.311   0.01778385  16.2884         80
 3.50   0.0000    461.0806    807.6478     289895.3      43.5463 -61.03     2.345     2.265      1.578   0.01777982  14.3944         81
 5.82   0.0000    420.8114    159.0276      2037.33      43.5463  31.01     1.646     1.399      1.904   0.01778787  19.7773         82
 7.46   0.0000    419.5259   1580.4933     621.1857      43.5463  42.63     0.503     0.496      1.008   0.01777378  21.0669         83
 4.09   0.0000    432.9641   1422.0618     3580.201      43.5463  10.78     1.426     1.390      0.590   0.01778586  19.1652         84
 6.56   0.0000    426.6788   1179.2426     1258.013      43.5463   4.87     1.217     0.942      1.888   0.01778184  20.3008         85
 6.30   0.0000    426.7638    432.9953     77744.31      43.5463  -1.33     2.306     0.724      4.209   0.01778787  15.8233         86
 7.97   0.0000    426.3199    299.6852      596.571      43.5463  45.26     0.563     0.340      0.873   0.01777378  21.1108         87
 5.15   0.0000    434.2638    151.1026     1677.349      43.5463 -22.15     1.134     1.029      0.837   0.01777982  19.9884         88
 3.83   0.0000    450.3487     21.3388      16635.7      43.5463 -48.98     1.765     1.732      1.048   0.01777982  17.4974         89
 4.97   0.0000    467.8039    850.5261      10562.4      43.5463  22.58     7.410     2.036     11.410   0.01779592  17.9906         90
 9.78   0.0000    430.5058    718.5177     994.3504      43.5463  46.24     0.503     0.497      3.018   0.01777378  20.5562         91
 4.44   0.0000    439.9993    305.8438     1804.661      43.5463  43.70     1.155     1.138      0.892   0.01779391  19.9090         92
 3.72   0.0000    457.8458     34.5835     18775.41      43.5463 -52.57     1.776     1.744      0.961   0.01778989  17.3660         93
 5.37   0.0000    445.1875    122.3629     1972.645      43.5463 -18.75     1.407     1.262      1.288   0.01778989  19.8124         94
 7.36   0.0000    443.7620    655.0262     533.9024      43.5463   1.24     0.687     0.426      0.997   0.01778989  21.2313         95
 4.21   0.0000    463.6682    468.6435     5478.545      43.5463  53.82     1.598     1.540      0.974   0.01778385  18.7033         96
 6.17   0.0000    452.9252   1533.0214     941.5385      43.5463 -29.49     0.791     0.773      0.891    0.0177919  20.6154         97
 5.02   0.0000    461.0328   1096.1024     1673.812      43.5463  25.35     1.186     1.122      1.220   0.01776975  19.9907         98
 3.93   0.0000    472.1450    734.9465     6934.134      43.5463  81.94     1.560     1.476      0.742   0.01778385  18.4475         99
 4.57   0.0000    471.3524    254.2341      4738.58      43.5463 -43.46     1.496     1.431      1.043   0.01778989  18.8609        100
 7.57   0.0000    461.8461    724.7260     951.0693      43.5463 -20.19     0.947     0.682      2.036   0.01777781  20.6045        101
 3.65   0.0000    477.9322    923.0837     8822.145      43.5463 -33.10     1.669     1.599      0.721    0.0177758  18.1861        102
 4.25   0.0000    477.2760   1276.4293     3040.585      43.5463 -44.94     1.341     0.920      1.342   0.01778385  19.3426        103
 5.70   0.0000    488.8282    839.6331     1295.166      43.5463  88.79     2.086     0.973      3.607   0.01778787  20.2692        104
 4.03   0.0000    484.0666   1070.6798     3954.743      43.5463 -55.90     1.426     1.366      0.911   0.01777378  19.0572        105
 6.55   0.0000    476.0097   1168.3048     648.3705      43.5463  86.99     0.730     0.675      0.986   0.01777982  21.0204        106
 5.24   0.0000    496.2249     82.9241     5173.317      43.5463  67.05     2.294     2.075      4.635   0.01778586  18.7656        107
 6.75   0.0000    478.8782    682.8464     733.1883      43.5463 -45.71     0.818     0.680      1.131   0.01777781  20.8870        108
 5.08   0.0000    495.6584   1186.8361      5201.72      43.5463 -15.84     2.977     1.887      5.635   0.01778787  18.7596        109
 5.01   0.0000    504.2094    762.9064     2957.022      43.5463 -89.47     1.764     1.674      2.326   0.01778184  19.3729        110
 4.68   0.0000    501.9949    863.7543     1983.814      43.5463   0.62     1.253     1.182      0.744   0.01779391  19.8062        111
 4.47   0.0000    515.3533   1461.0763     6909.061      43.5463  24.01     4.103     1.634      6.145    0.0177758  18.4515        112
 5.91   0.0000    498.0129    366.2479      883.011      43.5463  -0.58     0.922     0.749      1.054    0.0177919  20.6851        113
 6.00   0.0000    509.9556    165.0489     2015.144      43.5463 -10.41     1.837     1.020      3.854   0.01778989  19.7892        114
 4.78   0.0000    513.9047   1179.2246     2215.076      43.5463  -5.57     1.244     1.182      0.907   0.01777982  19.6865        115
 5.35   0.0000    519.1333    641.9204      1522.66      43.5463  20.46     1.195     1.114      1.314   0.01777378  20.0935        116
 6.42   0.0000    518.1923   1519.1840     761.7329      43.5463  46.10     0.759     0.567      1.041    0.0177758  20.8455        117
 4.07   0.0000    540.2014    999.9447      5628.54      43.5463  -7.60     1.478     1.467      0.880   0.01779994  18.6740        118
 6.33   0.0000    536.3397    404.5272     931.7665      43.5463  39.13     1.182     0.788      1.780   0.01777781  20.6267        119
 3.79   0.0000    558.9291   1041.7891      7460.43      43.5463   0.03     1.618     1.552      0.826   0.01779592  18.3681        120
 4.65   0.0000    571.2954     45.8589     4585.869      43.5463  48.88     2.091     1.515      2.277   0.01777378  18.8964        121
 5.98   0.0000    555.8099    778.7978     638.3958      43.5463  45.31     0.757     0.566      0.841   0.01777982  21.0373        122
 3.50   0.0000    580.7115    144.9684     33088.84      43.5463 -70.14     1.859     1.826      1.127   0.01778184  16.7508        123
 4.50   0.0000    571.3770   1447.8510     3996.176      43.5463  19.22     2.289     1.667      3.287   0.01779391  19.0459        124
 5.72   0.0000    565.1072    139.5361     1310.103      43.5463 -68.23     1.046     0.976      0.995   0.01777982  20.2567        125
 4.21   0.0000    596.6942    782.6355     12624.46      43.5463 -64.90     3.326     3.088      6.840   0.01777378  17.7970        126
 3.50   0.0000    582.2111    319.2451     32333.59      43.5463   2.55     1.852     1.810      1.124   0.01778787  16.7759        127
 6.15   0.0000    576.3021   1001.8055     1276.239      43.5463  28.92     1.220     1.022      1.503   0.01777982  20.2852        128
 4.56   0.0000    584.5316     76.0103     1823.192      43.5463  -8.04     1.204     1.139      0.915   0.01779592  19.8979        129
 4.04   0.0000   1001.5208   1555.4537     3743.236      43.5463  52.13     1.345     1.320      1.001    0.0177758  19.1169        130
 4.65   0.0000   1597.6199    654.7779     1096.139      43.5463   2.77     1.652     1.432      3.662   0.01528579  20.4503        131
 5.04   0.0000   1594.7402    374.1065     1440.849      43.5463  43.35     1.308     1.019      1.363   0.01719027  20.1535        132
 3.98   0.0000   1584.9110   1108.9387     6126.237      43.5463 -13.63     1.428     1.352      0.690   0.01777781  18.5820        133
 6.67   0.0000   1585.9336   1069.5111     1634.255      43.5463 -89.02     0.781     0.500      0.938   0.01777781  20.0167        134
 3.53   0.0000   1541.8699    135.1601     12747.51      43.5463  70.30     1.663     1.606      0.843   0.01778586  17.7864        135
 4.63   0.0000   1514.6406    483.6134     2703.292      43.5463 -43.54     1.049     0.948      0.976   0.01778787  19.4703        136
 4.31   0.0000    912.4411   1001.0433     1770.493      43.5463   2.65     1.099     0.958      0.979    0.0177919  19.9298        137
 3.50   0.0000    900.4877    302.8330     20967.37      43.5463  49.85     1.765     1.762      1.015   0.01778385  17.2461        138
