#   1 KRON_RADIUS            Kron apertures in units of A or B                         
#   2 MAGERR_APER            RMS error vector for fixed aperture mag.                   [mag]
#   3 Y_IMAGE                Object position along y                                    [pixel]
#   4 X_IMAGE                Object position along x                                    [pixel]
#   5 THETA_IMAGE            Position angle (CCW/x)                                     [deg]
#   6 FLUX_APER              Flux vector within fixed circular aperture(s)              [count]
#   7 A_IMAGE                Profile RMS along major axis                               [pixel]
#   8 THRESHOLD              Detection threshold above background                       [count]
#   9 B_IMAGE                Profile RMS along minor axis                               [pixel]
#  10 FLUX_RADIUS            Fraction-of-light radii                                    [pixel]
#  11 FLUXERR_APER           RMS error vector for aperture flux(es)                     [count]
#  12 MAG_APER               Fixed aperture magnitude vector                            [mag]
#  13 NUMBER                 Running object number                                     
 4.37   0.0010     53.2492     63.7991   2.40     32304.02     4.357           15     3.984      9.816     29.00869  16.7769          1
 4.10   0.0060     16.4718    985.1567 -88.07      5217.42     3.735           15     1.698      7.012     28.97917  18.7564          2
 3.97   0.0066     17.9865     91.3714 -53.26      4807.22     1.570           15     1.488      3.314     28.99557  18.8453          3
 3.50   0.0026     14.5972   1445.8169 -80.07     11955.72     1.744           15     1.672      3.249     28.97917  17.8561          4
 6.99   0.0486     17.1821    384.7968 -45.25       647.82     0.753           15     0.567      3.303     28.97917  21.0214          5
 5.12   0.0308     24.7609    367.2383  39.82      1021.16     1.062           15     1.038      3.179     28.99885  20.5273          6
 3.50   0.0007     59.7664   1078.5476  80.39     47483.54     2.148           15     2.001      3.636     28.99885  16.3586          7
 3.50   0.0007     80.0907    537.6920 -71.63     46274.66     2.048           15     1.992      3.555     28.95948  16.3866          8
 4.34   0.0154     75.2280    128.2098 -42.79       2041.1     1.334           15     1.292      3.376     28.99229  19.7753          9
 8.75   0.0612     82.4950    421.5017 -44.79       513.64     0.501           15     0.499      3.009     28.95948  21.2734         10
 3.50   0.0005    121.7744    789.2222 -67.47     66618.44     2.120           15     2.061      3.570     28.99557  15.9910         11
 8.24   0.0329     90.7881    376.9991  89.85       957.82     0.946           15     0.770      5.161     28.98573  20.5968         12
 4.37   0.0106     96.5909     56.2589 -21.93      2971.42     1.408           15     1.318      3.424     29.00869  19.3676         13
 7.57   0.0498     98.0005    453.0040 -43.86       632.16     0.898           15     0.535      3.696     28.98901  21.0479         14
 3.50   0.0008    162.2509   1468.3955 -79.64      39243.5     2.033           15     1.946      3.518     29.00869  16.5656         15
 3.61   0.0031    170.2679    877.3882 -62.71     10081.64     1.723           15     1.681      3.330     29.00541  18.0412         16
 5.50   0.0346    164.9924   1445.5902 -89.97       909.22     1.087           15     0.949      3.370     28.97589  20.6533         17
 5.22   0.0475    166.6618    104.3994 -43.06        663.7     0.998           15     0.873      2.956     29.00869  20.9951         18
 5.60   0.0250    192.6395   1350.5353  80.76      1261.72     1.088           15     1.003      3.837     28.99229  20.2976         19
 5.55   0.0081    210.6582    827.6677  -6.34         3883     2.747           15     1.712      7.964     28.98245  19.0771         20
 4.24   0.0150    206.6921    549.1891  64.24      2094.62     1.319           15     1.299      3.101     28.98245  19.7472         21
 4.20   0.0147    212.1993   1306.1979 -78.19      2142.24     1.352           15     1.291      3.257     28.99557  19.7228         22
 6.11   0.0100    230.0650    562.1762 -37.98      3154.34     2.561           15     2.306      8.961     28.99557  19.3027         23
 7.21   0.0539    210.8688    684.8645 -46.17          584     0.834           15     0.678      3.689     28.97261  21.1340         24
 3.91   0.0127    223.9686   1226.1376  86.77      2469.84     1.401           15     1.322      3.123     28.98901  19.5683         25
 3.50   0.0003    259.7245    997.4921 -72.06       110186     2.227           15     2.157      3.598     28.96933  15.4447         26
 5.13   0.0377    222.5072    774.9922  -1.68        834.4     1.082           15     0.952      3.350     28.98245  20.7466         27
 3.50   0.0004    265.8916     67.6592 -62.74     83827.26     2.148           15     2.101      3.550     28.97261  15.7415         28
 6.33   0.0206    244.0010    112.9882 -80.50      1527.34     1.555           15     1.218      6.106     28.98573  20.0902         29
 7.80   0.0509    239.2809    838.9832  -2.94       619.22     0.742           15     0.683      4.028     28.99557  21.0704         30
 5.14   0.0082    255.4213    613.0656 -35.57      3838.92     2.017           15     1.708      5.740     28.99557  19.0895         31
 8.38   0.0430    250.5010    107.5009 -45.00       731.58     0.502           15     0.498      3.014     28.95948  20.8893         32
 3.50   0.0014    287.5008   1486.5306 -70.04     21937.72     1.912           15     1.832      3.407     28.97261  17.1970         33
 3.73   0.0059    281.8641   1522.4325 -68.81      5347.62     1.578           15     1.530      3.229     28.98901  18.7296         34
 8.46   0.0580    270.6871   1273.6602 -43.74       542.54     0.571           15     0.336      2.939     28.97261  21.2139         35
 3.50   0.0019    303.1224    201.8259 -70.31      16734.8     1.814           15     1.787      3.368     28.98901  17.4909         36
 6.55   0.0288    293.4106   1475.6356 -46.77      1093.44     0.995           15     0.875      4.642     28.99557  20.4530         37
 5.55   0.0355    302.2738    563.5635 -15.20       885.92     0.984           15     0.953      3.348     28.98245  20.6815         38
 3.50   0.0028    322.0353    697.3682 -75.04     11306.78     1.742           15     1.712      3.277     28.99229  17.9167         39
 5.50   0.0154    327.5102    595.5055 -26.45      2047.86     1.401           15     1.390      4.704     28.95948  19.7717         40
 8.79   0.0368    321.9905    641.4991 -88.31       856.08     0.808           15     0.500      4.315     28.97589  20.7187         41
 6.64   0.0632    332.0735     93.3000  80.04       497.66     0.732           15     0.672      3.059     28.95948  21.3077         42
 4.78   0.0274    350.0340     54.8757 -37.01      1147.84     1.148           15     1.130      3.372     28.98245  20.4003         43
 3.67   0.0027    368.1146    761.1957 -69.51     11797.98     1.768           15     1.698      3.380     28.98573  17.8705         44
 4.45   0.0145    361.2217   1500.5074 -58.49       2167.1     1.322           15     1.301      3.370     28.97917  19.7103         45
 6.16   0.0577    360.5319   1034.0068 -89.68       545.46     0.799           15     0.704      2.681     29.00541  21.2081         46
 3.50   0.0006    395.1687    231.5045 -65.60     50461.42     2.053           15     2.012      3.536     28.97261  16.2926         47
 3.55   0.0038    397.0243   1461.2343  87.70       8212.8     1.652           15     1.608      3.205     28.99229  18.2638         48
 3.53   0.0033    398.1424    354.6748 -35.74      9468.74     1.702           15     1.657      3.261     28.97589  18.1093         49
 4.16   0.0159    393.7128   1088.7422 -66.82         1977     1.309           15     1.244      2.997     28.97589  19.8100         50
 8.97   0.0441    396.6698    626.6751 -45.24       713.64     0.572           15     0.336      3.185     28.96604  20.9163         51
 8.03   0.0274    412.4884      1.4985 -89.99        877.9     1.100           15     0.500      5.129     22.13321  20.6914         52
 3.50   0.0017    437.9201    252.1413 -80.22     18157.82     1.851           15     1.804      3.414     28.97917  17.4023         53
 6.20   0.0326    420.8461    159.1396  44.41       966.34     1.256           15     1.064      4.517     28.98573  20.5872         54
 3.50   0.0002    461.0544    807.6869 -69.40     131923.8     2.242           15     2.186      3.572     28.97261  15.2492         55
 4.56   0.0204    432.9372   1422.0659 -49.26      1542.34     1.190           15     1.123      3.176     28.97261  20.0795         56
 8.00   0.0010    426.3267    433.6627  44.53     30051.88     0.576           15     0.334      3.389     28.96933  16.8553         57
 6.07   0.0589    434.0292    151.0296  47.60        534.2     0.785           15     0.783      2.960     28.98901  21.2307         58
 3.82   0.0051    450.2974     21.4172 -76.10      6136.76     1.607           15     1.557      3.312     28.98245  18.5802         59
 6.13   0.0322    445.2569    122.4241 -59.88        977.9     1.150           15     0.955      4.099     28.99557  20.5743         60
 5.79   0.0495    440.0038    305.7815  -0.69        635.8     0.903           15     0.755      3.003     28.98245  21.0417         61
 5.50   0.0072    467.7160    850.4396  22.49      4379.36     6.214           15     1.752     14.005     28.98573  18.9465         62
 3.76   0.0045    457.8175     34.6510 -46.81      6977.02     1.641           15     1.575      3.325     28.99557  18.4408         63
 4.39   0.0143    463.6512    468.6115  74.13      2203.78     1.350           15     1.322      3.345     29.00213  19.6921         64
 6.04   0.0489    461.0798   1096.3517  15.46       644.12     0.998           15     0.748      3.171     28.97589  21.0276         65
 3.99   0.0113    472.0443    734.9708 -52.27      2798.22     1.390           15     1.378      3.261     29.00541  19.4328         66
 4.61   0.0170    471.3667    254.3258 -43.81      1849.28     1.344           15     1.252      3.322     28.98245  19.8825         67
 3.84   0.0089    477.9377    923.1066  72.21      3545.68     1.452           15     1.428      3.175     28.97589  19.1758         68
 4.69   0.0244    477.4910   1276.5251 -45.49      1287.68     1.092           15     0.799      2.921     28.96933  20.2755         69
 4.37   0.0207    484.0191   1070.6996  -6.91      1520.78     1.210           15     1.175      3.178     28.96933  20.0948         70
 6.01   0.0142    496.1053     83.1115  50.20      2220.24     1.884           15     1.591      6.230     28.95948  19.6840         71
 8.63   0.0464    488.4909    839.6686 -89.77       677.84     0.943           15     0.471      4.685     28.96933  20.9722         72
 6.13   0.0150    495.5521   1186.8837 -11.66         2097     2.280           15     1.434      6.905     28.97589  19.7460         73
 4.85   0.0360    502.0215    863.7155  89.92        874.1     1.068           15     1.028      3.072     28.98901  20.6961         74
 6.51   0.0246    504.1061    762.9114 -42.71      1278.08     1.291           15     1.185      5.067     28.96276  20.2836         75
 5.27   0.0113    515.3171   1461.1370  25.70      2795.44     3.247           15     1.350      7.596     28.97261  19.4339         76
 7.27   0.0418    509.9713    165.8056  -2.30       753.64     0.919           15     0.755      4.262     28.99229  20.8571         77
 5.34   0.0360    513.7430   1179.4207 -16.38       873.62     0.975           15     0.950      3.242     28.99885  20.6967         78
 6.64   0.0530    519.0310    641.9885 -40.84       593.76     0.798           15     0.789      3.502     28.99885  21.1160         79
 4.34   0.0155    540.2678    999.9679 -83.58      2029.22     1.315           15     1.273      3.173     28.99229  19.7817         80
 4.08   0.0110    558.9242   1041.8359  61.82      2854.78     1.412           15     1.386      3.298     28.98245  19.4111         81
 5.05   0.0177    571.2046     45.9520  48.68      1784.62     1.777           15     1.283      4.519     29.00869  19.9211         82
 3.50   0.0028    582.1641    319.2921 -56.60     11279.12     1.742           15     1.715      3.316     28.97261  17.9193         83
 3.50   0.0028    580.6515    145.0341 -74.15     11318.86     1.737           15     1.686      3.267     28.99885  17.9155         84
 5.96   0.0191    571.4419   1447.9792  26.56      1652.08     1.708           15     1.350      5.729     28.99557  20.0049         85
 7.61   0.0740    564.7873    139.5964  71.59       425.04     0.738           15     0.455      2.826     28.97589  21.4789         86
 5.04   0.0065    596.6771    782.6903 -64.70       4834.1     2.798           15     2.492      8.007     28.96933  18.8392         87
 7.81   0.0555    576.1833   1001.8245 -44.97       567.54     0.763           15     0.571      3.714     28.98245  21.1650         88
 5.26   0.0445    584.5250     76.1989 -81.79       707.28     0.982           15     0.943      3.018     28.99557  20.9260         89
 4.92   0.0336    999.8708   1273.8196 -45.51       938.28     1.158           15     1.029      3.110     29.00541  20.6192         90
 6.35   0.0326   1597.6212    654.8572 -17.19       828.84     1.232           15     0.990      4.253     24.91799  20.7538         91
 7.06   0.0551   1594.8591    374.1336  45.09       550.48     0.838           15     0.672      3.404     27.92649  21.1981         92
 5.97   0.0313   1546.0352    863.5189  67.46      1004.54     1.273           15     0.964      4.130     28.98573  20.5451         93
 4.27   0.0109   1542.5936    654.7667  -9.51      2898.78     1.395           15     1.374      3.375     28.99557  19.3945         94
 3.94   0.0077   1541.7943    135.1802  72.40       4101.7     1.503           15     1.450      3.225     28.98573  19.0176         95
 3.54   0.0031   1038.6554    525.4937 -61.89      10182.5     1.726           15     1.694      3.306     28.97261  18.0304         96
 3.50   0.0015   1025.7018   1380.0769 -83.27     21101.88     1.909           15     1.810      3.381     28.96276  17.2392         97
 6.68   0.0219    986.7147    454.0607  85.30       1437.5     1.295           15     1.222      5.844     28.97261  20.1560         98
 5.94   0.0297    980.9628    797.9971 -77.02      1059.98     1.187           15     1.170      4.375     28.98901  20.4868         99
 7.35   0.0447    978.1801    452.8186 -45.70       703.76     0.753           15     0.569      3.661     28.98901  20.9314        100
 6.87   0.0716    965.0379    416.4961 -89.77       439.24     0.784           15     0.500      2.626     28.96604  21.4432        101
 6.93   0.0380    950.7533    654.4555  -2.99        829.4     1.002           15     0.989      4.634     28.98573  20.7531        102
 6.65   0.0735    947.8222    445.1938 -45.44       428.54     0.748           15     0.567      2.997     28.98573  21.4700        103
 4.10   0.0139    939.1708   1067.2499 -76.19      2263.56     1.385           15     1.285      3.271     28.99885  19.6630        104
 9.23   0.0483    938.4916    516.4865  45.39        651.1     0.504           15     0.496      3.024     28.95948  21.0159        105
 4.76   0.0258    928.2906   1322.6356  66.79      1219.28     1.130           15     1.104      3.230     28.97589  20.3347        106
 4.70   0.0345    912.8324    838.5927 -75.27        913.1     1.130           15     0.955      2.848     28.99229  20.6487        107
 6.07   0.0706    912.1641   1001.1413 -44.58       446.22     0.815           15     0.676      2.681     28.99229  21.4261        108
 3.59   0.0041    900.3816    302.9015 -56.98      7669.84     1.642           15     1.617      3.245     28.97917  18.3380        109
 5.87   0.0210    896.1433    538.3982  -0.40      1502.16     1.478           15     1.256      4.932     29.01196  20.1082        110
 8.36   0.0959    893.5396   1426.4816 -31.55       327.92     0.500           15     0.498      2.819     28.96933  21.7606        111
 6.99   0.0394    888.6398    325.7913  22.54          800     1.161           15     0.889      4.582     28.99557  20.7923        112
 3.50   0.0003    880.1780   1592.6589 -81.56     105894.5     2.228           15     2.106      3.596     28.99885  15.4878        113
 4.88   0.0307    885.8364   1500.2797  67.33      1023.92     1.118           15     1.017      3.140     28.98245  20.5243        114
 5.37   0.0564    877.6447    961.0855 -75.72        558.3     0.989           15     0.750      3.027     28.97917  21.1828        115
 4.40   0.0103    869.4243   1103.7172 -46.36       3053.5     1.752           15     1.556      4.301     28.98573  19.3380        116
 6.08   0.0299    867.9976    939.9743  38.43      1051.64     1.448           15     1.024      4.797     28.98573  20.4953        117
 5.62   0.0420    858.4358   1339.6268 -53.19       748.92     1.012           15     0.878      3.522     28.99229  20.8639        118
 5.75   0.0548    844.9875   1063.9880 -44.90        574.7     0.786           15     0.780      2.911     28.98245  21.1514        119
 5.10   0.0258    843.2435   1106.2429  31.06      1222.26     1.322           15     1.115      3.829     28.99229  20.3321        120
 4.52   0.0189    836.5932    298.8609 -78.07      1670.84     1.285           15     1.208      3.229     29.01196  19.9927        121
 7.92   0.0915    835.5115    819.4685 -54.77       343.92     0.501           15     0.498      2.807     28.96604  21.7089        122
 3.61   0.0041    822.9625    654.4772 -76.30      7672.54     1.658           15     1.601      3.256     28.98245  18.3377        123
 3.53   0.0045    803.0191   1378.7842 -73.81      6989.64     1.658           15     1.602      3.204     28.98901  18.4389        124
 3.50   0.0016    798.4828    695.7690 -87.55     19317.88     2.515           15     1.794      4.201     28.98573  17.3351        125
 4.21   0.0094    800.7248     41.2087 -49.92       3348.2     1.443           15     1.391      3.326     29.00213  19.2380        126
 5.30   0.0124    774.3524   1427.3524 -89.60      2545.56     2.334           15     1.592      6.360     29.00213  19.5355        127
 4.51   0.0174    742.8000    556.4390  -7.66       1811.7     1.279           15     1.255      3.315     28.99557  19.9048        128
 5.55   0.0512    738.1602   1158.1676 -41.61       615.48     0.886           15     0.857      3.051     28.99885  21.0770        129
 5.80   0.0473    736.1319    649.8373  41.46       665.52     0.881           15     0.858      3.152     28.98901  20.9921        130
 3.50   0.0005    726.5585    848.5452 -74.43     66599.72     2.114           15     2.060      3.584     28.98573  15.9913        131
 4.62   0.0254    727.3411   1178.3016 -47.28      1238.88     1.129           15     1.099      2.990     28.96604  20.3174        132
 7.58   0.0759    721.3962   1395.1848  18.81       414.86     0.753           15     0.449      3.133     28.97917  21.5052        133
 4.23   0.0198    715.8390    808.4616 -12.40      1591.52     1.271           15     1.255      3.124     28.98901  20.0455        134
 4.40   0.0196    708.9507   1163.8972 -48.85      1605.94     1.226           15     1.164      3.178     28.95291  20.0357        135
 4.87   0.0176    704.2919   1339.2717 -44.42      1790.26     1.431           15     1.288      4.393     28.97261  19.9177        136
 4.01   0.0104    702.7967    952.6184 -44.98      3033.56     1.414           15     1.390      3.232     28.97917  19.3451        137
 9.02   0.0497    699.2294    582.9828   0.69       633.96     0.708           15     0.420      3.931     28.99229  21.0448        138
