#   1 KRON_RADIUS            Kron apertures in units of A or B                         
#   2 MAGERR_APER            RMS error vector for fixed aperture mag.                   [mag]
#   3 Y_IMAGE                Object position along y                                    [pixel]
#   4 X_IMAGE                Object position along x                                    [pixel]
#   5 THETA_IMAGE            Position angle (CCW/x)                                     [deg]
#   6 FLUX_APER              Flux vector within fixed circular aperture(s)              [count]
#   7 A_IMAGE                Profile RMS along major axis                               [pixel]
#   8 THRESHOLD              Detection threshold above background                       [count]
#   9 B_IMAGE                Profile RMS along minor axis                               [pixel]
#  10 FLUX_RADIUS            Fraction-of-light radii                                    [pixel]
#  11 FLUXERR_APER           RMS error vector for aperture flux(es)                     [count]
#  12 MAG_APER               Fixed aperture magnitude vector                            [mag]
#  13 NUMBER                 Running object number                                     
 4.54   0.0006     52.2524     61.7930  -1.50     147315.5     3.806           25     3.471      9.482     83.68771  15.1294          1
 5.09   0.0038     15.1527    983.0590 -86.04      23631.3     3.016           25     1.560      7.226     83.61205  17.1163          2
 4.27   0.0045     17.0303     89.3467 -30.86     20291.93     1.479           25     1.436      3.914     83.64989  17.2817          3
 3.64   0.0017     13.6418   1443.7933 -54.66     52338.33     1.744           25     1.677      4.062     83.64043  16.2529          4
 5.80   0.0210     23.6501    365.3174 -42.88     4321.652     1.012           25     0.871      3.759     83.58366  18.9609          5
 3.50   0.0004     58.8182   1076.5420  74.41     239455.6     2.175           25     2.061      4.276     83.63097  14.6019          6
 3.50   0.0004     79.1474    535.6800 -31.63     229973.8     2.065           25     2.038      3.981     83.57419  14.6458          7
 4.84   0.0108     74.1106    126.1760 -28.71     8391.905     1.305           25     1.181      3.940     83.61205  18.2403          8
 3.50   0.0003    120.8295    787.2147 -58.08     341438.8     2.150           25     2.099      4.135     83.64989  14.2167          9
 4.75   0.0072     95.5905     54.3364 -27.68     12648.76     1.351           25     1.329      3.874     83.67826  17.7949         10
 3.50   0.0005    161.3059   1466.3787 -62.07     193111.7     2.026           25     1.966      4.218     83.60258  14.8355         11
 3.85   0.0021    169.2919    875.3546 -28.78     43574.92     1.702           25     1.658      4.032     83.54578  16.4519         12
 6.52   0.0240    163.8865   1443.8348 -47.33     3780.138     0.825           25     0.675      3.638     83.61205  19.1062         13
 8.23   0.0350    165.5255    102.4947 -41.09     2591.954     0.502           25     0.497      3.012     83.57419  19.5159         14
 6.11   0.0180    191.5307   1348.5195 -74.90     5046.029     0.910           25     0.900      4.023     83.57419  18.7926         15
 4.65   0.0100    205.6836    547.0923 -76.92      9059.21     1.279           25     1.169      3.921     83.56472  18.1573         16
 6.40   0.0050    209.6087    825.6045  -2.25     18125.03     2.035           25     1.465      7.676     83.61205  17.4043         17
 4.82   0.0102    211.1547   1304.1129 -49.11      8909.84     1.246           25     1.170      4.083     83.58366  18.1753         18
 4.28   0.0089    223.0152   1224.1460 -67.58     10264.41     1.319           25     1.276      3.987     83.64989  18.0217         19
 7.64   0.0060    228.7648    560.0703 -18.88     15202.88     1.685           25     1.544      8.805     83.63097  17.5952         20
 3.50   0.0002    258.7745    995.5050 -59.32     591617.9     2.251           25     2.222      4.205     83.59312  13.6199         21
 6.76   0.0265    221.3294    772.9777  -2.38     3429.075     0.739           25     0.664      3.653     83.65935  19.2121         22
 3.50   0.0002    264.9318     65.6790 -51.28     438013.5     2.183           25     2.146      3.994     83.55525  13.9463         23
 7.54   0.0128    242.8251    110.9827 -88.38     7098.583     0.934           25     0.763      4.788     83.62151  18.4221         24
 5.68   0.0052    254.3522    611.0402 -41.48     17448.01     1.764           25     1.490      5.772     83.64043  17.4456         25
 3.57   0.0009    286.5396   1484.5338 -58.61       103184     1.889           25     1.851      4.186     83.58366  15.5160         26
 4.01   0.0040    280.8940   1520.4062 -66.27     22748.22     1.539           25     1.482      4.078     83.60258  17.1576         27
 3.60   0.0012    302.1705    199.8169 -33.31     75758.07     1.841           25     1.788      3.916     83.63097  15.8514         28
 7.27   0.0218    292.2347   1473.7821 -45.12     4161.893     0.752           25     0.562      3.679     83.63097  19.0018         29
 6.49   0.0218    301.1283    561.6675  20.44     4168.243     0.906           25     0.691      3.864     83.54578  19.0001         30
 3.64   0.0018    321.0754    695.3506 -21.83     50239.32     1.737           25     1.675      3.963     83.56472  16.2974         31
 5.92   0.0095    326.4922    593.4879 -14.35      9514.41     1.267           25     1.242      4.922     83.54578  18.1040         32
 6.09   0.0186    349.0164     52.5936  -2.28     4871.096     1.028           25     0.785      3.882     83.58366  18.8309         33
 3.90   0.0017    367.1353    759.1730 -21.22     52187.71     1.741           25     1.670      4.109     83.63097  16.2561         34
 4.81   0.0098    360.1096   1498.4897  -0.38     9244.828     1.295           25     1.181      4.113     83.53632  18.1353         35
 3.50   0.0004    394.2179    229.5092 -49.30     254632.6     2.084           25     2.043      3.984     83.61205  14.5352         36
 3.66   0.0025    396.0493   1459.2540 -64.52     36049.62     1.647           25     1.566      4.068     83.62151  16.6577         37
 3.74   0.0022    397.1829    352.6923 -26.62     41256.12     1.673           25     1.637      3.866     83.62151  16.5113         38
 4.64   0.0107    392.7892   1086.7902  72.91     8490.821     1.224           25     1.128      3.824     83.58366  18.2276         39
 3.55   0.0011    436.9729    250.1296 -28.30     83064.26     1.853           25     1.811      3.970     83.63097  15.7515         40
 3.50   0.0001    460.1093    805.6985 -60.18     717449.6     2.280           25     2.229      4.224     83.53632  13.4105         41
 4.69   0.0139    431.9568   1420.0211 -64.21     6537.234     1.151           25     1.135      3.976     83.64043  18.5115         42
 4.06   0.0034    449.4333     19.4063 -21.03     26336.42     1.574           25     1.519      3.877     83.64043  16.9986         43
 7.50   0.0335    438.8061    303.6031  71.70     2709.462     0.737           25     0.454      3.544     83.59312  19.4678         44
 4.05   0.0031    456.8649     32.6100 -17.79      29704.7     1.591           25     1.551      3.859     83.67826  16.8679         45
 7.45   0.0198    444.1256    120.1454 -44.91     4573.013     0.844           25     0.672      4.121     83.58366  18.8995         46
 6.45   0.0043    466.4256    848.3066  21.20     21350.34     3.916           25     1.499     12.983     83.59312  17.2265         47
 4.77   0.0097    462.7689    466.6361  54.43     9361.062     1.297           25     1.241      3.932     83.63097  18.1217         48
 7.52   0.0323    459.8168   1094.3976 -71.01     2810.974     0.746           25     0.449      3.187     83.59312  19.4279         49
 4.54   0.0078    471.1284    732.8560 -10.69     11666.05     1.362           25     1.268      3.946     83.57419  17.8827         50
 5.06   0.0114    470.3182    252.2546 -29.35     7990.255     1.154           25     1.101      3.873     83.55525  18.2936         51
 4.13   0.0061    476.9845    921.0479 -30.47     14995.16     1.407           25     1.389      3.899     83.64043  17.6101         52
 5.06   0.0164    476.7859   1274.9120  62.47     5539.278     1.066           25     0.994      3.986     83.62151  18.6914         53
 5.20   0.0149    482.9602   1068.6731 -65.50     6109.777     1.133           25     1.017      3.881     83.61205  18.5849         54
 6.94   0.0083    494.9617     81.1165  32.83        10945     1.454           25     1.184      6.246     83.61205  17.9520         55
 8.08   0.0091    494.4965   1185.0063  -0.83     9971.049     1.192           25     0.976      6.601     83.61205  18.0531         56
 6.23   0.0234    500.9929    861.9526 -50.75     3884.197     0.793           25     0.781      3.617     83.65935  19.0767         57
 8.15   0.0143    502.8831    760.8575 -45.88     6366.515     0.851           25     0.676      4.728     83.58366  18.5402         58
 6.86   0.0071    514.0340   1459.0259  22.98      12747.2     2.132           25     1.068      7.912     83.63097  17.7865         59
 6.69   0.0233    512.8486   1177.1847  46.69     3891.167     0.807           25     0.684      3.944     83.64989  19.0748         60
 4.79   0.0103    539.2169    997.9527 -46.86     8842.435     1.203           25     1.180      3.927     83.64043  18.1836         61
 4.55   0.0076    557.9019   1039.7178  13.69     11963.43     1.318           25     1.284      4.042     83.52684  17.8554         62
 3.69   0.0018    579.7522    143.0125 -34.80     49815.84     1.723           25     1.662      3.854     83.64989  16.3066         63
 6.06   0.0104    570.1929     43.9884  38.64     8686.164     1.295           25     1.101      4.941     83.57419  18.2029         64
 3.69   0.0018    581.1976    317.2354 -13.26     49554.27     1.739           25     1.675      3.954     83.62151  16.3123         65
 7.61   0.0120    570.2397   1445.8368 -10.01     7555.838     1.131           25     0.854      5.481     83.65935  18.3543         66
 6.21   0.0039    595.8130    780.6463 -73.79     23442.89     2.170           25     1.887      7.943     83.63097  17.1250         67
 6.67   0.0267    583.6703     73.9975  -1.82     3399.458     0.740           25     0.666      3.508     83.65935  19.2215         68
 5.47   0.0158   1000.5062   1553.5094 -46.39     5733.919     1.025           25     1.007      3.963     83.54578  18.6539         69
 5.55   0.0167   1560.2885    859.4815  -4.41     5437.923     0.980           25     0.953      3.807     83.56472  18.7114         70
 7.62   0.0174   1545.0062    861.4960   0.01      5228.37     0.833           25     0.705      4.363     83.60258  18.7541         71
 4.67   0.0071   1541.6366    652.6843 -40.52     12776.29     1.345           25     1.254      3.917     83.61205  17.7840         72
 4.19   0.0051   1540.8558    133.1579 -41.15     17880.56     1.457           25     1.371      3.739     83.60258  17.4190         73
 3.77   0.0021   1037.7163    523.4890 -20.28     44111.07     1.692           25     1.658      3.979     83.57419  16.4386         74
 5.76   0.0216    998.8245   1271.8403 -47.42     4205.879     0.899           25     0.851      3.869     83.65935  18.9904         75
 3.50   0.0006    983.9032    556.5564 -26.13     150236.1     1.966           25     1.947      4.075     83.54578  15.1081         76
 7.39   0.0122    985.6390    452.0667 -75.12     7446.586     1.018           25     0.755      5.085     83.62151  18.3701         77
 7.35   0.0179    979.8876    795.8620 -46.32     5069.494     0.836           25     0.673      4.145     83.57419  18.7876         78
 4.75   0.0093    938.1644   1065.1890 -27.81     9750.828     1.273           25     1.173      4.057     83.64043  18.0774         79
 5.49   0.0166    927.3094   1320.5197 -34.14     5459.949     0.983           25     0.953      3.933     83.56472  18.7070         80
 5.35   0.0232    911.6586    836.6209  43.22     3912.243     0.985           25     0.882      3.769     83.64043  19.0689         81
 3.67   0.0028    899.4852    300.8888 -15.56     32922.66     1.592           25     1.581      3.815     83.56472  16.7563         82
 7.22   0.0125    895.1354    536.3735 -12.64     7241.711     1.044           25     0.898      5.114     83.62151  18.4004         83
 3.50   0.0002    879.2342   1590.6615 -70.26     576187.3     2.236           25     2.190      4.319     83.62151  13.6486         84
 5.90   0.0210    884.6757   1498.1090 -76.86     4318.355     0.994           25     0.750      3.777     83.56472  18.9617         85
 7.37   0.0389    876.5884    959.1991 -19.45     2331.671     0.745           25     0.451      3.325     83.61205  19.6308         86
 5.10   0.0067    868.3965   1101.6682 -44.60     13482.46     1.527           25     1.387      4.768     83.65935  17.7256         87
 7.23   0.0360    843.9849   1061.9991  -0.35     2520.007     0.619           25     0.617      3.553     83.60258  19.5465         88
 6.45   0.0159    842.3638   1104.3356  41.73      5726.26     1.021           25     0.879      4.320     83.62151  18.6553         89
 4.97   0.0121    835.6928    296.7594 -36.48     7518.089     1.147           25     1.094      3.819     83.53632  18.3597         90
 3.82   0.0027    822.0398    652.4699 -86.95     33681.16     1.616           25     1.597      4.006     83.62151  16.7315         91
 3.89   0.0030    802.0800   1376.7468 -58.61     30437.51     1.580           25     1.539      4.080     83.57419  16.8415         92
 3.55   0.0010    797.5395    693.7547 -87.94      88886.2     2.475           25     1.824      4.580     83.60258  15.6779         93
 4.40   0.0062    799.7029     39.3045 -28.43     14655.39     1.401           25     1.317      3.893     83.53632  17.6350         94
 6.73   0.0075    773.1492   1425.3757 -86.53      12161.9     1.616           25     1.305      6.695     83.66881  17.8375         95
 4.87   0.0117    741.8272    554.4200 -15.52     7738.822     1.250           25     1.131      3.941     83.62151  18.3283         96
 6.71   0.0334    737.1573   1156.1470  44.42     2716.985     0.748           25     0.572      3.701     83.63097  19.4648         97
 6.62   0.0281    735.0201    647.7151 -86.41     3230.704     0.729           25     0.679      3.704     83.63097  19.2768         98
 3.50   0.0003    725.6161    846.5399 -41.26     344156.5     2.151           25     2.117      4.137     83.62151  14.2081         99
 5.29   0.0166    726.4120   1176.3781 -45.66     5485.315     1.042           25     0.952      3.843     83.60258  18.7020        100
 5.14   0.0131    714.8447    806.4806 -89.55     6904.834     1.155           25     0.995      3.827     83.58366  18.4521        101
 4.89   0.0133    707.9800   1161.9261 -49.22     6824.687     1.152           25     1.135      3.951     83.66881  18.4648        102
 5.47   0.0111    703.3814   1337.1163 -15.24     8158.805     1.178           25     0.958      4.434     83.63097  18.2709        103
 4.59   0.0072    701.7889    950.6255 -44.48     12655.88     1.350           25     1.257      4.050     83.61205  17.7943        104
 4.75   0.0085    684.6791    642.3289  -3.34     10624.32     1.271           25     1.269      4.096     83.56472  17.9842        105
 8.19   0.0222    685.6606   1211.6757 -45.66      4093.22     0.576           25     0.334      2.884     83.59312  19.0198        106
 3.50   0.0003    647.2854   1462.4448 -60.86     337996.4     2.138           25     2.086      4.259     83.59312  14.2277        107
 7.09   0.0296    653.5170    868.9907   0.17     3068.144     0.784           25     0.500      3.594     83.61205  19.3328        108
 6.82   0.0280    629.6958    804.0479  -5.56     3238.762     0.734           25     0.669      3.841     83.53632  19.2741        109
 5.42   0.0167    622.4357   1579.6312  48.23     5450.416     1.052           25     0.948      4.139     83.63097  18.7089        110
 5.03   0.0132   1583.9178   1106.8875 -27.11      6885.51     1.156           25     1.080      4.012     83.57419  18.4552        111
 4.67   0.0082   1565.6211     20.0057 -89.87     11087.83     1.295           25     1.177      3.795     83.61205  17.9379        112
 3.50   0.0003   1557.0254    485.7679 -34.20     297963.4     2.091           25     2.056      3.991     83.61205  14.3646        113
 3.50   0.0003   1562.6761    302.3063 -18.38     300624.2     2.085           25     2.054      3.968     83.56472  14.3549        114
 6.07   0.0122   1564.8615    782.5746 -74.15     7464.466     1.195           25     0.968      4.666     83.64043  18.3675        115
 4.60   0.0106   1569.4763     90.7731 -67.88     8569.422     1.229           25     1.134      3.686     83.61205  18.2176        116
 4.29   0.0010   1551.4945    680.2899 -25.16      87662.3     3.628           25     3.180      8.966     83.53632  15.6930        117
 3.50   0.0005   1078.9891    510.2593 -35.31     168591.2     2.005           25     1.967      4.043     83.66881  14.9829        118
 3.72   0.0023   1513.9259    390.7896   0.47     40059.41     1.662           25     1.640      3.834     83.66881  16.5432        119
 3.89   0.0026   1106.4930    426.0363  -2.85     34923.61     1.667           25     1.570      3.949     83.57419  16.6922        120
 3.50   0.0006   1506.1836    267.4439 -31.31       162835     1.973           25     1.946      3.973     83.63097  15.0206        121
 6.19   0.0217   1503.1226    721.3359 -21.64     4188.656     0.898           25     0.694      3.743     83.56472  18.9948        122
 6.19   0.0083   1119.2373    327.7472  47.61     10915.96     1.502           25     1.240      5.695     83.63097  17.9548        123
 8.36   0.0140   1109.5096    476.9840  -0.15     6500.645     0.799           25     0.500      4.393     83.62151  18.5176        124
 6.84   0.0266   1128.0165    545.3074 -89.47     3411.205     0.738           25     0.674      3.733     83.62151  19.2177        125
 5.12   0.0124   1150.1888     97.4742 -29.36      7322.81     1.135           25     1.118      3.888     83.66881  18.3883        126
 3.52   0.0011   1128.9912    181.6625 -18.64     82982.83     1.837           25     1.802      3.854     83.67826  15.7525        127
 4.45   0.0016   1271.7118    608.0491 -51.84     55287.98     3.065           25     2.182      7.146     83.58366  16.1934        128
 7.31   0.0196   1152.4878   1350.9922 -89.10     4636.359     0.817           25     0.705      4.251     83.62151  18.8846        129
 3.83   0.0024   1387.7593   1426.6241 -31.56     38054.85     1.650           25     1.596      4.099     83.64989  16.5990        130
 4.23   0.0071   1407.2468    306.3777 -22.88     12841.88     1.320           25     1.248      3.695     83.64043  17.7784        131
 4.42   0.0069   1389.5114    711.4059 -21.67     13201.03     1.345           25     1.329      3.945     83.60258  17.7485        132
 5.71   0.0200   1291.8004    410.8340 -43.16      4543.11     0.896           25     0.855      3.606     83.60258  18.9066        133
 7.78   0.0202   1399.6777   1029.0642  -5.73     4502.096     0.741           25     0.676      4.447     83.56472  18.9165        134
 4.29   0.0069   1438.7970    617.2338  42.58     13151.74     1.324           25     1.301      3.814     83.63097  17.7525        135
 3.50   0.0002   1392.4169    112.5846 -48.83     407361.8     2.144           25     2.117      3.958     83.62151  14.0250        136
 5.10   0.0108   1414.3215   1384.6783  53.74     8435.079     1.132           25     1.114      3.994     83.60258  18.2348        137
 4.16   0.0051   1434.3160    222.8432 -45.56      17805.7     1.463           25     1.404      3.786     83.60258  17.4236        138
