#   1 KRON_RADIUS            Kron apertures in units of A or B                         
#   2 MAGERR_APER            RMS error vector for fixed aperture mag.                   [mag]
#   3 Y_IMAGE                Object position along y                                    [pixel]
#   4 X_IMAGE                Object position along x                                    [pixel]
#   5 FLUX_APER              Flux vector within fixed circular aperture(s)              [count]
#   6 THRESHOLD              Detection threshold above background                       [count]
#   7 THETA_IMAGE            Position angle (CCW/x)                                     [deg]
#   8 A_IMAGE                Profile RMS along major axis                               [pixel]
#   9 B_IMAGE                Profile RMS along minor axis                               [pixel]
#  10 FLUX_RADIUS            Fraction-of-light radii                                    [pixel]
#  11 FLUXERR_APER           RMS error vector for aperture flux(es)                     [count]
#  12 MAG_APER               Fixed aperture magnitude vector                            [mag]
#  13 NUMBER                 Running object number                                     
 4.23   0.0000     53.2652     63.6543     77594.23      43.5214   3.17     5.181     4.630      3.691  0.008422156  15.8254          1
 3.95   0.0000     16.5149    985.0804     12976.31      43.5214 -88.61     4.203     1.941      3.149  0.008419294  17.7671          2
 4.06   0.0000     18.0504     91.3141     10599.26      43.5214   0.42     1.768     1.716      2.247  0.008421202  17.9868          3
 3.50   0.0000     14.6167   1445.7477     27527.14      43.5214 -47.82     1.890     1.819      2.330  0.008427875  16.9506          4
 8.12   0.0000     10.2946   1183.6542     464.9178      43.5214  42.42     0.565     0.339      2.270  0.008419294  21.3816          5
 7.36   0.0000      4.2259    145.0241     485.0882      43.5214  89.83     0.957     0.768      3.213  0.007548129  21.3354          6
 6.64   0.0000     17.2495    384.5071     1291.801      43.5214  19.99     0.993     0.952      2.443   0.00841834  20.2720          7
 5.14   0.0000     24.7971    367.2085     2041.799      43.5214  13.81     1.305     1.234      2.203  0.008422156  19.7750          8
 3.50   0.0000     59.7850   1078.4766     108649.3      43.5214  77.02     2.287     2.159      2.436  0.008430733  15.4599          9
 8.57   0.0000     23.7800    383.3999     1525.181      43.5214 -71.85     0.755     0.452      2.428  0.008425016  20.0917         10
 6.41   0.0000     33.9023   1110.1802     1254.288      43.5214  68.24     1.657     0.778      2.447  0.008421202  20.3040         11
 7.88   0.0000     33.3076    326.9492     864.1745      43.5214  -6.92     0.747     0.677      2.544  0.008420249  20.7085         12
 5.98   0.0000     37.8655   1521.1591     695.8246      43.5214  46.72     0.834     0.669      2.478  0.008425016  20.9438         13
 7.05   0.0000     38.8750   1170.6508     764.8304      43.5214 -19.52     0.923     0.691      2.384  0.008419294  20.8411         14
 5.87   0.0000     42.4605    915.4996     803.6002      43.5214 -77.10     0.913     0.907      2.213   0.00841834  20.7874         15
 3.50   0.0000     80.1536    537.6561     107016.8      43.5214 -59.56     2.145     2.122      2.313  0.008424062  15.4764         16
 9.02   0.0000     44.6655    440.6699     748.4398      43.5214 -45.19     0.576     0.334      2.218  0.008420249  20.8646         17
 4.26   0.0000     75.2162    128.0142      4368.65      43.5214  -5.75     1.516     1.469      2.342  0.008425016  18.9491         18
 6.64   0.0000     82.2787    421.5101      1014.31      43.5214 -15.66     0.994     0.986      2.615   0.00841834  20.5346         19
 3.50   0.0000    121.8120    789.2006     155248.8      43.5214 -62.81     2.230     2.179      2.285  0.008425016  15.0724         20
 6.02   0.0000     90.7295    376.9918     2011.646      43.5214   4.47     1.628     1.442      2.770  0.008428828  19.7911         21
 4.42   0.0000     96.6151     56.2576     6494.472      43.5214 -38.95     1.639     1.566      2.225  0.008425969  18.5186         22
 6.10   0.0000     98.0585    452.9797      1789.92      43.5214 -14.82     1.454     1.005      2.456  0.008427875  19.9179         23
 7.39   0.0000     91.4945    495.9650     641.4393      43.5214  -1.40     0.788     0.500      2.316  0.008419294  21.0321         24
 3.50   0.0000    162.2989   1468.3301     89122.73      43.5214 -48.48     2.111     2.074      2.333  0.008420249  15.6750         25
 6.85   0.0000    131.2865    418.0175      608.683      43.5214   5.64     0.729     0.681      2.365  0.008424062  21.0890         26
 3.55   0.0000    170.2996    877.3505     23492.66      43.5214  -8.96     1.882     1.865      2.241  0.008413569  17.1227         27
 8.52   0.0000    151.4999   1280.4825     458.0424      43.5214 -47.88     0.501     0.498      2.246  0.008414524  21.3977         28
 5.51   0.0000    164.9741   1445.6677      1873.48      43.5214  17.35     1.303     1.186      2.334  0.008425969  19.8684         29
 4.82   0.0000    166.8505    104.4303     1286.327      43.5214 -46.35     1.196     1.124      2.143  0.008427875  20.2766         30
 6.42   0.0000    169.3397   1368.8977     573.3566      43.5214  68.06     0.910     0.689      2.323   0.00841834  21.1539         31
 7.68   0.0000    180.3316    574.9897     1148.517      43.5214  53.18     1.039     0.643      2.669  0.008429781  20.3997         32
 7.49   0.0000    186.6387   1354.8976      947.378      43.5214  75.59     1.045     0.753      2.542  0.008417387  20.6087         33
 5.30   0.0000    192.6023   1350.5554     2562.169      43.5214 -19.15     1.368     1.305      2.251  0.008429781  19.5285         34
 4.77   0.0000    210.7202    827.6749      9769.58      43.5214  -5.78     3.810     2.091      3.014  0.008421202  18.0753         35
 4.14   0.0000    206.7225    549.0807     4767.063      43.5214   3.37     1.545     1.484      2.257  0.008422156  18.8544         36
 4.19   0.0000    212.1664   1306.1005     5015.249      43.5214 -64.54     1.516     1.487      2.261  0.008415477  18.7993         37
 5.52   0.0000    230.1494    562.2775     8296.368      43.5214 -37.31     3.231     3.004      4.219  0.008419294  18.2528         38
 5.76   0.0000    210.8939    684.8484     1504.565      43.5214 -66.39     1.218     1.115      2.413   0.00841834  20.1065         39
 3.50   0.0000    259.7588    997.4791       270572      43.5214 -48.81     2.331     2.263      2.316  0.008423109  14.4693         40
 3.92   0.0000    223.9121   1226.0618     5682.541      43.5214  25.89     1.523     1.479      2.321  0.008420249  18.6636         41
 4.86   0.0000    222.6267    774.9695     1761.065      43.5214  81.57     1.224     1.191      2.207  0.008425969  19.9356         42
 3.50   0.0000    265.9002     67.6173     192898.3      43.5214 -49.31     2.268     2.237      2.380  0.008421202  14.8367         43
 5.52   0.0000    243.9732    112.8913     3657.057      43.5214 -88.19     1.951     1.539      3.021  0.008422156  19.1422         44
 4.81   0.0000    255.4885    613.0098     9204.347      43.5214 -41.01     2.436     2.028      2.715  0.008425016  18.1400         45
 6.52   0.0000    239.3535    838.8231     1495.542      43.5214  -5.84     1.203     1.102      2.422  0.008426922  20.1130         46
 7.18   0.0000    250.5180    107.4840     1221.176      43.5214 -42.78     1.108     0.852      2.417  0.008419294  20.3331         47
 3.50   0.0000    287.5196   1486.4733     49576.34      43.5214 -43.97     2.033     1.992      2.323  0.008420248  16.3118         48
 3.66   0.0000    281.9236   1522.4003     11836.15      43.5214   3.77     1.701     1.668      2.230  0.008425969  17.8670         49
 6.46   0.0000    270.7727   1273.6278     1132.508      43.5214  16.49     1.000     0.849      2.122  0.008426922  20.4149         50
 3.50   0.0000    303.1506    201.7659     38401.93      43.5214 -78.11     1.968     1.942      2.322  0.008425969  16.5891         51
 6.27   0.0000    293.2967   1475.8354     1255.244      43.5214 -33.66     1.250     1.086      2.231  0.008416432  20.3032         52
 4.64   0.0000    302.2875    563.6751     1541.852      43.5214  31.81     1.325     1.283      2.292   0.00841834  20.0799         53
 3.50   0.0000    322.0853    697.3419     26504.54      43.5214   1.78     1.882     1.848      2.208  0.008421202  16.9917         54
 7.64   0.0000    308.7069     85.2985     983.7759      43.5214  45.78     0.969     0.767      2.492  0.008417387  20.5678         55
 6.05   0.0000    321.9905    641.4783     1950.909      43.5214 -64.00     1.799     1.232      2.961  0.008426922  19.8244         56
 5.16   0.0000    327.5369    595.4523     4911.356      43.5214 -52.10     1.728     1.694      2.519  0.008422156  18.8220         57
 6.07   0.0000    329.2517   1546.0168      830.629      43.5214 -87.78     0.913     0.756      2.370  0.008427875  20.7515         58
 5.83   0.0000    332.2679     93.4347      1023.46      43.5214  20.40     0.992     0.948      2.226  0.008425969  20.5248         59
 4.78   0.0000    350.1319     54.7084     2426.044      43.5214  -8.51     1.366     1.298      2.278  0.008419294  19.5878         60
 3.50   0.0000    368.1670    761.1217     27315.03      43.5214 -26.12     1.940     1.871      2.263  0.008424062  16.9590         61
 4.02   0.0000    361.1491   1500.4037     4995.479      43.5214 -15.08     1.586     1.464      2.397  0.008430733  18.8036         62
 3.50   0.0000    395.2009    231.4691     115132.1      43.5214 -63.05     2.184     2.143      2.335  0.008428828  15.3970         63
 5.78   0.0000    360.5269   1034.0070     1109.384      43.5214  -1.40     1.111     0.957      2.316  0.008428828  20.4373         64
 6.91   0.0000    375.4792    754.0627     1377.409      43.5214  56.22     1.715     0.961      2.030  0.008419294  20.2023         65
 7.68   0.0000    370.3091     71.9499     715.2455      43.5214 -10.89     0.743     0.672      2.323  0.008422156  20.9139         66
 6.47   0.0000    373.4826   1083.8826     1081.116      43.5214 -17.84     1.100     0.990      2.423  0.008419294  20.4653         67
 6.41   0.0001    380.6161      1.4882     114.3538      43.5214 -89.79     1.601     0.500      3.001   0.00643752  22.9044         68
 3.50   0.0000    397.0519   1461.2017      18860.9      43.5214 -44.85     1.804     1.797      2.285  0.008430733  17.3611         69
 3.50   0.0000    398.1799    354.6261      21625.8      43.5214 -13.53     1.890     1.844      2.311  0.008425016  17.2126         70
 8.09   0.0000    375.6552     87.2937     433.7135      43.5214  47.61     0.564     0.339      2.063  0.008420249  21.4570         71
 6.71   0.0000    380.1594    125.8447     811.1838      43.5214  44.65     0.818     0.680      2.372  0.008426922  20.7772         72
 4.22   0.0000    393.8183   1088.7736     4401.635      43.5214 -35.06     1.516     1.449      2.224  0.008425969  18.9410         73
 8.89   0.0000    382.4900     67.5055     783.2277      43.5214 -44.69     0.503     0.497      2.144  0.008416432  20.8153         74
 8.07   0.0000    388.6902   1195.3347     506.0694      43.5214  43.77     0.567     0.338      2.592  0.008422156  21.2895         75
 6.14   0.0000    412.0432      1.7727     196.5845      43.5214  90.00     2.505     0.701      4.299  0.006572099  22.3161         76
 7.90   0.0000    396.8768    626.5975     1918.643      43.5214 -73.71     1.239     0.985      3.206  0.008425969  19.8425         77
 8.16   0.0000    403.6928    526.4366     986.9799      43.5214  81.17     1.023     0.476      2.331  0.008420249  20.5642         78
 7.54   0.0000    407.0518    282.4902     550.9274      43.5214 -88.59     0.787     0.500      2.153  0.008422156  21.1973         79
 3.50   0.0000    437.9478    252.1072     41621.08      43.5214 -87.21     2.006     1.974      2.300  0.008420249  16.5017         80
 3.50   0.0000    461.0704    807.6703     305037.1      43.5214 -68.51     2.341     2.304      2.332  0.008415477  14.3391         81
 5.83   0.0000    420.9021    159.0900     2003.382      43.5214  37.62     1.694     1.421      2.530  0.008416432  19.7956         82
 7.67   0.0000    419.5386   1580.4929     668.8382      43.5214  40.47     0.504     0.495      2.371  0.008420248  20.9867         83
 4.17   0.0000    432.9492   1422.0629     3411.422      43.5214   6.85     1.427     1.396      2.223  0.008422156  19.2177         84
 6.72   0.0000    426.5748   1179.2787       1042.2      43.5214  26.35     1.188     0.957      2.455  0.008425016  20.5051         85
 6.42   0.0000    426.8329    433.0970     97929.22      43.5214  -3.27     2.183     0.735      4.320   0.00841834  15.5727         86
 5.15   0.0000    434.2586    151.1154     1003.817      43.5214 -20.05     1.138     1.034      2.186  0.008421202  20.5459         87
 3.88   0.0000    450.3392     21.3603     14152.26      43.5214 -27.47     1.777     1.769      2.322  0.008425969  17.6729         88
 5.07   0.0000    467.7993    850.4810     10767.84      43.5214  22.59     7.403     2.054      5.020  0.008425969  17.9697         89
 9.05   0.0000    430.6650    719.3185     1247.901      43.5214  45.76     0.572     0.336      2.269   0.00841834  20.3095         90
 4.48   0.0000    440.0043    305.8401     1519.435      43.5214  22.45     1.160     1.136      2.219  0.008425969  20.0958         91
 5.42   0.0000    445.2589    122.3780     2107.479      43.5214 -23.52     1.401     1.309      2.473  0.008427875  19.7406         92
 3.80   0.0000    457.8408     34.5939     15731.92      43.5214 -30.83     1.779     1.767      2.295  0.008426922  17.5580         93
 8.05   0.0000    443.6886    655.3237     704.0933      43.5214  44.36     0.563     0.340      2.255  0.008417387  20.9309         94
 4.32   0.0000    463.6414    468.6490     4819.075      43.5214  70.99     1.619     1.558      2.388  0.008427875  18.8426         95
 6.24   0.0000    452.9206   1533.0249     834.3353      43.5214 -31.03     0.792     0.774      2.375  0.008425016  20.7466         96
 5.22   0.0000    460.9918   1096.1410      1682.97      43.5214  47.71     1.191     1.080      2.339  0.008430733  19.9848         97
 4.60   0.0000    471.3581    254.2742     4184.564      43.5214 -79.51     1.510     1.439      2.301  0.008423109  18.9959         98
 4.03   0.0000    472.1380    734.9207     5626.296      43.5214  75.27     1.566     1.511      2.256  0.008419294  18.6744         99
 7.71   0.0000    461.8358    724.7247     899.2142      43.5214 -20.12     0.949     0.683      2.391  0.008423109  20.6653        100
 3.70   0.0000    477.9271    923.0840     7957.631      43.5214 -28.67     1.679     1.612      2.236  0.008419294  18.2980        101
 4.34   0.0000    477.2791   1276.4363     2856.763      43.5214 -44.53     1.334     0.920      3.132  0.008423109  19.4103        102
 5.84   0.0000    488.9431    839.6031     1712.961      43.5214  87.10     2.059     0.959      2.883  0.008430733  19.9656        103
 4.14   0.0000    484.0388   1070.6680     3284.819      43.5214 -80.82     1.429     1.400      2.279  0.008425016  19.2587        104
 7.10   0.0000    475.9789   1168.4807     733.8057      43.5214  89.68     0.781     0.500      2.362  0.008425969  20.8860        105
 5.40   0.0000    496.2654     82.9187     5533.164      43.5214  66.13     2.311     2.046      3.346   0.00841834  18.6926        106
 6.87   0.0000    478.8629    682.8434      757.633      43.5214 -46.10     0.819     0.679      2.232  0.008423109  20.8514        107
 5.12   0.0000    495.7248   1186.8407     5733.323      43.5214 -15.71     2.996     1.931      3.409  0.008423109  18.6540        108
 5.26   0.0000    504.0796    762.8668     2477.886      43.5214 -10.71     1.688     1.646      2.627   0.00841834  19.5648        109
 4.77   0.0000    502.0138    863.8067     1996.618      43.5214  64.62     1.201     1.192      2.349  0.008420249  19.7993        110
 4.57   0.0000    515.3623   1461.0657     6552.575      43.5214  23.93     4.115     1.649      3.133  0.008425969  18.5090        111
 6.08   0.0000    498.0054    366.2516     889.0536      43.5214   0.37     0.926     0.749      2.302  0.008430733  20.6777        112
 6.08   0.0000    509.9191    164.8152     1890.978      43.5214  -5.95     1.820     1.073      2.952  0.008426922  19.8583        113
 4.83   0.0000    513.8598   1179.1876      2045.46      43.5214  24.06     1.285     1.178      2.289  0.008426922  19.7730        114
 5.52   0.0000    519.1540    641.9484     1225.975      43.5214  22.36     1.200     1.120      2.478  0.008428828  20.3288        115
 6.45   0.0000    518.1915   1519.1722     750.9855      43.5214  45.74     0.761     0.567      2.309  0.008425969  20.8609        116
 4.09   0.0000    540.2067    999.9378     4768.288      43.5214  61.15     1.534     1.490      2.288  0.008429781  18.8541        117
 6.53   0.0000    536.3547    404.5305     843.3725      43.5214  38.93     1.195     0.786      2.103  0.008422156  20.7350        118
 3.90   0.0000    558.9035   1041.7982     6299.724      43.5214   6.20     1.633     1.563      2.299  0.008424062  18.5517        119
 4.74   0.0000    571.3472     45.9143     4041.438      43.5214  46.17     2.084     1.522      2.377  0.008420249  19.0337        120
 5.98   0.0000    555.8228    778.8107      522.462      43.5214  44.57     0.756     0.567      2.333  0.008424062  21.2549        121
 3.50   0.0000    580.7163    144.9663     26368.89      43.5214  83.47     1.885     1.868      2.307  0.008425016  16.9973        122
 4.85   0.0000    571.3085   1447.7944     3543.955      43.5214  19.43     2.258     1.637      2.634  0.008421202  19.1763        123
 5.88   0.0000    565.0881    139.5546     946.8884      43.5214 -69.74     1.052     0.977      2.144  0.008421202  20.6093        124
 3.50   0.0000    582.1971    319.2584      26371.8      43.5214   7.31     1.887     1.830      2.218  0.008430733  16.9972        125
 4.29   0.0000    596.7602    782.6867     12395.08      43.5214 -62.08     3.302     3.182      3.599  0.008424062  17.8169        126
 5.97   0.0000    576.2225   1001.8235     1436.873      43.5214  40.80     1.216     1.076      2.417  0.008425969  20.1565        127
 4.64   0.0000    584.5398     76.0209     1906.503      43.5214  -0.84     1.205     1.138      2.288  0.008427875  19.8494        128
 4.19   0.0000   1001.5298   1555.4829     3155.232      43.5214  54.97     1.346     1.330      2.314   0.00841834  19.3024        129
 4.71   0.0000   1597.6036    654.7847     537.0844      43.5214   1.75     1.659     1.434      2.531  0.007244081  21.2249        130
 5.16   0.0000   1594.7568    374.1190     722.6755      43.5214  42.74     1.307     1.027      1.923  0.008139931  20.9026        131
 4.05   0.0000   1584.9181   1108.9316     3306.704      43.5214 -15.59     1.433     1.357      2.234  0.008420249  19.2515        132
 6.78   0.0000   1585.9497   1069.5099     785.9357      43.5214 -88.96     0.783     0.500      2.468  0.008421202  20.8115        133
 3.60   0.0000   1541.8564    135.1745     9302.622      43.5214  54.68     1.663     1.623      2.195  0.008426922  18.1285        134
 8.74   0.0000   1519.3268     85.3294     813.7737      43.5214 -44.88     0.573     0.336      1.891  0.008417387  20.7737        135
 4.79   0.0000   1514.6519    483.6263     1157.297      43.5214 -43.74     1.049     0.951      2.387  0.008427875  20.3914        136
 4.90   0.0000    912.4185   1001.2366     1346.646      43.5214  73.44     0.989     0.957      2.255  0.008426922  20.2269        137
 3.50   0.0000    900.4997    302.8331     17866.96      43.5214 -64.19     1.794     1.787      2.312  0.008416432  17.4199        138
