#   1 KRON_RADIUS            Kron apertures in units of A or B                         
#   2 MAGERR_APER            RMS error vector for fixed aperture mag.                   [mag]
#   3 Y_IMAGE                Object position along y                                    [pixel]
#   4 X_IMAGE                Object position along x                                    [pixel]
#   5 THETA_IMAGE            Position angle (CCW/x)                                     [deg]
#   6 FLUX_APER              Flux vector within fixed circular aperture(s)              [count]
#   7 A_IMAGE                Profile RMS along major axis                               [pixel]
#   8 THRESHOLD              Detection threshold above background                       [count]
#   9 B_IMAGE                Profile RMS along minor axis                               [pixel]
#  10 FLUX_RADIUS            Fraction-of-light radii                                    [pixel]
#  11 FLUXERR_APER           RMS error vector for aperture flux(es)                     [count]
#  12 MAG_APER               Fixed aperture magnitude vector                            [mag]
#  13 NUMBER                 Running object number                                     
 3.77   0.0010     53.2526     63.7735   1.03      32297.2     5.881            5     5.373     10.662     28.99885  16.7771          1
 3.50   0.0007     59.7737   1078.5190  86.76      47482.5     2.541            5     2.425      3.785     28.98901  16.3587          2
 3.50   0.0060     16.3358    985.0377 -88.28      5223.04     4.513            5     2.275      7.172     28.98901  18.7552          3
 4.55   0.0310     24.5483    367.1930 -48.97      1016.54     1.572            5     1.471      3.575     29.01196  20.5322          4
 5.89   0.0558     17.1158    384.6058 -57.33       563.64     1.412            5     1.282      5.336     28.98573  21.1725          5
 3.66   0.0065     18.0279     91.3346 -48.14       4808.5     1.937            5     1.848      3.463     28.98901  18.8450          6
 3.50   0.0026     14.5908   1445.7604 -49.23      11955.9     2.115            5     2.024      3.466     28.99557  17.8560          7
 4.58   0.1610      9.8049   1183.7000  21.26       195.48     0.950            5     0.843      2.635     28.98245  22.3222          8
 6.39   0.0611      4.0691    145.2197 -18.48       458.34     1.479            5     1.363      5.552     25.79547  21.3970          9
 6.78   0.0809     23.7753    383.2054  68.99          389     1.285            5     1.215      5.740     28.98901  21.5751         10
 5.29   0.0565     33.6432   1110.3035  74.40        556.9     1.940            5     1.296      4.575     28.96276  21.1856         11
 8.12   0.1252     23.8097    698.3942 -71.24       251.36     0.754            5     0.448      4.182     28.98245  22.0493         12
 6.43   0.0739     33.1281    326.7328 -12.63        425.4     1.586            5     1.060      5.250     28.96276  21.4780         13
 4.85   0.0989     38.6100   1170.5216 -81.25        318.3     1.388            5     0.985      3.154     28.99557  21.7929         14
 3.50   0.0007     80.1287    537.6593 -50.92     46277.84     2.444            5     2.367      3.714     28.97589  16.3866         15
 4.95   0.1157     37.2896   1521.3633 -72.77        272.1     1.184            5     0.926      3.056     28.97917  21.9632         16
 5.38   0.0931     42.4159    915.2531   0.24       338.24     1.146            5     1.070      3.575     28.99885  21.7269         17
 6.23   0.0917     44.7192    440.0381  -7.30       343.04     1.431            5     1.106      4.879     28.97917  21.7116         18
 6.23   0.1237     49.7147   1435.3700 -51.27       254.52     0.992            5     0.877      3.487     28.98901  22.0357         19
 6.70   0.1166     49.7626    265.6256 -60.04        270.1     1.059            5     0.954      4.179     28.99229  21.9712         20
 3.88   0.0154     75.1050    128.1747 -35.13      2041.68     1.875            5     1.671      3.603     28.97917  19.7750         21
 3.50   0.0005    121.8231    789.1940 -47.68     66612.82     2.510            5     2.425      3.704     28.98573  15.9911         22
 8.85   0.1770     65.3194   1148.3049 -45.80       177.74     0.559            5     0.342      2.945     28.96276  22.4255         23
 5.37   0.0619     81.9125    421.6305 -53.06       508.36     1.502            5     1.322      4.699     28.98573  21.2846         24
 5.63   0.0328     90.2533    377.1393 -44.67       958.18     2.266            5     2.054      6.880     28.97917  20.5964         25
 4.07   0.0106     96.6071     56.2623 -39.73       2971.2     1.848            5     1.797      3.739     29.00869  19.3677         26
 7.53   0.1055     87.7823    758.7943  72.58       298.26     1.110            5     0.697      4.496     28.98245  21.8635         27
 6.48   0.0962     91.5367    495.8921 -41.89       327.26     1.313            5     0.931      4.879     28.97917  21.7628         28
 5.07   0.0498     97.9641    452.9493 -17.88       632.66     1.871            5     1.279      4.970     28.99557  21.0471         29
 8.01   0.1785     88.3983   1359.8416 -19.15       176.42     0.761            5     0.446      3.625     28.99557  22.4336         30
 6.23   0.1570    116.8024    990.9694  87.97       200.54     0.937            5     0.752      3.067     28.98245  22.2945         31
 6.44   0.0985    117.2913     67.0378 -17.03       319.56     1.279            5     0.877      4.386     28.96933  21.7886         32
 7.34   0.1491    114.8832    416.1475  43.62       210.98     0.843            5     0.667      3.492     28.96933  22.2394         33
 3.50   0.0008    162.2794   1468.3600 -55.47     39236.16     2.390            5     2.316      3.646     28.97589  16.5658         34
 6.07   0.1873    117.8509    154.1174  43.77       167.96     0.807            5     0.674      2.944     28.97261  22.4870         35
 6.17   0.1008    131.0167    418.1723 -43.81       312.28     1.151            5     0.976      4.457     28.99229  21.8136         36
 7.02   0.1359    126.2177    493.7172 -15.19       231.66     1.123            5     0.692      3.700     28.99229  22.1379         37
 8.69   0.1823    128.4828    885.5291 -48.65       172.58     0.502            5     0.497      3.010     28.96604  22.4575         38
 3.50   0.0031    170.2481    877.3201   4.53      10080.7     2.095            5     2.083      3.535     28.97917  18.0413         39
 8.60   0.0926    142.7219    886.9815   4.52       340.16     0.754            5     0.686      4.524     28.99885  21.7208         40
 6.29   0.1738    151.4829   1280.4758  35.26       181.06     1.192            5     0.710      3.352     28.96933  22.4054         41
 4.77   0.0345    164.7317   1445.7095 -59.69       910.84     1.501            5     1.444      3.920     28.96933  20.6514         42
 7.12   0.2204    155.1959     82.8351 -44.91       142.86     0.759            5     0.563      3.058     28.99229  22.6627         43
 4.00   0.0476    166.6143    104.5419 -32.25        661.7     1.431            5     1.260      3.054     28.99229  20.9983         44
 5.37   0.0967    169.1312   1369.0419 -73.35       325.64     1.209            5     1.085      3.600     28.98901  21.7682         45
 8.03   0.1540    165.0270    576.2899  82.53       204.42     0.738            5     0.687      3.809     28.98245  22.2737         46
 7.49   0.1144    168.6792    651.1216  68.01       275.18     0.912            5     0.696      5.013     28.97589  21.9510         47
 5.89   0.0672    179.6328    575.1809  18.47        468.6     1.608            5     1.374      5.451     28.99557  21.3730         48
 4.29   0.0268    192.3766   1350.5253 -50.28      1173.68     1.771            5     1.557      4.050     28.99229  20.3761         49
 5.98   0.0644    186.4875   1354.9888 -18.50       488.72     1.555            5     1.264      4.780     28.98901  21.3273         50
 4.10   0.0081    210.5740    827.6672  -7.09      3883.14     4.514            5     2.446      8.481     28.99557  19.0770         51
 4.51   0.0100    229.6212    562.3777 -14.43      3162.42     3.863            5     3.605      9.195     28.99557  19.2999         52
 3.62   0.0150    206.7145    549.1254 -33.44      2094.86     1.692            5     1.620      3.169     28.96604  19.7471         53
 3.50   0.0147    212.0606   1306.1511  77.58      2141.78     1.722            5     1.717      3.315     28.98245  19.7231         54
 3.50   0.0003    259.7790    997.4797 -45.22     110196.4     2.675            5     2.562      3.740     28.99229  15.4446         55
 8.47   0.1980    195.5320    449.4903 -42.48        158.9     0.505            5     0.494      3.028     28.97261  22.5472         56
 4.91   0.0538    210.6920    684.7921  86.13        585.3     1.569            5     1.369      4.268     28.98245  21.1316         57
 3.50   0.0004    265.9453     67.6254 -29.69     83840.58     2.602            5     2.519      3.701     29.00213  15.7414         58
 8.27   0.1128    205.3555    936.8246  66.65        279.3     0.743            5     0.654      4.455     29.00213  21.9348         59
 3.52   0.0127    223.9229   1226.1252 -79.97      2470.04     1.738            5     1.641      3.216     28.97261  19.5682         60
 6.83   0.1664    208.9824   1225.5057 -27.53       189.16     1.020            5     0.657      3.338     28.98573  22.3579         61
 4.09   0.0377    222.2509    774.8787  -5.23       834.52     1.494            5     1.452      3.612     28.97261  20.7464         62
 7.59   0.0961    217.3834    741.7900   0.94       327.58     1.052            5     0.875      4.947     28.97917  21.7617         63
 4.94   0.0214    243.9783    112.9617 -78.24      1469.66     2.423            5     1.829      5.933     28.99557  20.1320         64
 4.27   0.0082    255.2534    612.9803 -41.10      3842.86     2.928            5     2.392      6.296     28.99557  19.0884         65
 7.69   0.0903    229.4547    548.1540 -42.28       348.78     1.354            5     0.696      5.309     28.98573  21.6936         66
 4.98   0.0506    239.1424    838.6713 -20.46       622.26     1.725            5     1.512      4.626     28.97589  21.0651         67
 7.49   0.2975    239.4225   1478.8088 -19.47       105.82     0.744            5     0.453      2.573     28.98901  22.9886         68
 6.13   0.0550    250.3959    107.4318 -29.84       572.22     1.364            5     1.261      5.786     28.99557  21.1561         69
 3.50   0.0014    287.5201   1486.5017 -52.99     21935.88     2.291            5     2.232      3.623     28.95948  17.1971         70
 7.59   0.2151    248.3100   1414.3591 -42.91       146.32     0.578            5     0.332      2.534     28.97589  22.6367         71
 3.50   0.0059    281.8495   1522.3699  89.03      5347.74     1.931            5     1.843      3.368     28.99885  18.7296         72
 5.11   0.0581    270.2788   1273.5371 -53.05       541.66     1.639            5     1.259      4.836     28.96933  21.2157         73
 7.74   0.1237    265.1412    123.9342 -79.82       254.32     1.171            5     0.728      4.822     28.97917  22.0365         74
 3.50   0.0019    303.1318    201.7879 -47.32     16736.88     2.210            5     2.156      3.537     29.00541  17.4908         75
 4.50   0.0343    293.2372   1475.7463 -53.72       918.76     1.700            5     1.540      4.462     28.99229  20.6420         76
 4.31   0.0355    302.0498    563.7471 -34.15       887.36     1.559            5     1.496      3.666     28.99229  20.6798         77
 3.50   0.0028    322.0536    697.3242 -24.54     11305.84     2.058            5     2.000      3.436     28.97589  17.9167         78
 6.57   0.1374    292.1081    248.7789  -9.36       229.08     1.146            5     0.727      3.819     28.97917  22.1500         79
 6.40   0.0613    308.4271     85.4106  77.85       513.26     1.628            5     1.340      6.124     28.99229  21.2742         80
 5.17   0.0369    321.6866    641.6600 -55.08       853.12     2.464            5     1.643      5.852     28.97261  20.7225         81
 4.49   0.0154    327.3698    595.4722 -42.42      2048.26     2.189            5     2.060      5.147     28.98901  19.7715         82
 6.97   0.1581    316.9532    226.9417  54.60       199.06     0.807            5     0.778      3.517     28.98573  22.3025         83
 4.58   0.0632    332.0204     93.3973   6.72       498.06     1.286            5     1.222      3.389     28.98573  21.3068         84
 5.37   0.0796    328.9908   1546.0718 -39.37        395.9     1.223            5     1.109      4.045     29.00213  21.5560         85
 3.50   0.0027    368.3684    760.8387 -41.56     11811.84     2.835            5     2.109      3.786     28.99885  17.8692         86
 3.97   0.0274    349.9537     54.7386 -37.42      1149.76     1.635            5     1.518      3.497     28.98573  20.3985         87
 3.50   0.0006    395.2013    231.4809 -49.62     50464.42     2.460            5     2.392      3.681     28.99229  16.2925         88
 3.79   0.0145    360.9998   1500.3754  79.55      2170.08     1.744            5     1.709      3.552     28.98245  19.7088         89
 6.60   0.1152    348.3247     42.7720 -57.48       273.24     1.062            5     0.804      3.841     28.98573  21.9586         90
 4.61   0.0577    360.4079   1034.1396 -37.70       546.12     1.312            5     1.265      3.157     29.00869  21.2068         91
 5.59   0.0403    380.5229      1.9583 -87.54       617.28     2.531            5     0.900      5.791     22.88513  21.0738         92
 6.21   0.0929    370.4145     71.7133  -6.80       338.74     1.200            5     1.101      4.230     28.98573  21.7253         93
 3.79   0.0670    373.2807   1083.8218 -10.75        469.7     1.599            5     1.397      3.883     28.98901  21.3704         94
 3.50   0.0033    398.1689    354.6454 -40.36       9469.7     2.053            5     1.991      3.440     29.00213  18.1092         95
 3.50   0.0038    396.9917   1461.2236 -68.77      8212.68     2.015            5     1.943      3.401     28.98901  18.2638         96
 5.95   0.1363    369.2778    210.6540   9.19       230.82     1.180            5     0.720      3.031     28.97261  22.1418         97
 6.14   0.1762    375.2081     87.1578 -29.68       178.74     0.881            5     0.857      3.269     28.99557  22.4194         98
 5.33   0.0282    412.0732      2.2999  89.50       900.14     3.790            5     1.177      7.414     23.37433  20.6642         99
 6.25   0.0933    380.2317    125.8660  66.73       337.66     1.138            5     1.054      4.409     28.99557  21.7288        100
 3.72   0.0159    393.5732   1088.6937 -88.90      1976.84     1.692            5     1.565      3.131     28.97589  19.8101        101
 6.56   0.1065    382.4677     67.4873 -46.99       295.24     1.075            5     1.031      4.265     28.96604  21.8746        102
 5.81   0.0443    396.4593    626.9135  88.70       709.96     1.942            5     1.622      6.050     28.97261  20.9219        103
 4.93   0.1534    388.4278   1195.5741  43.60       205.24     1.076            5     0.949      2.816     28.99229  22.2693        104
 7.42   0.1961    389.1792    260.8672  44.91        160.6     0.839            5     0.682      4.073     28.99557  22.5356        105
 3.50   0.0002    461.0975    807.6652 -35.61       131921     2.649            5     2.556      3.707     28.97917  15.2492        106
 5.97   0.0653    403.4356    526.5179  50.81       482.18     1.738            5     1.208      5.343     28.98573  21.3420        107
 7.71   0.2229    391.3397     95.3168 -46.05       141.16     0.573            5     0.336      2.637     28.97261  22.6757        108
 3.50   0.0017    437.9424    252.0977 -32.06     18158.68     2.207            5     2.184      3.570     28.96604  17.4023        109
 6.01   0.1277    407.1134    282.4008 -15.04       246.54     0.996            5     0.867      3.617     28.98245  22.0703        110
 5.35   0.0325    420.6857    159.1642  28.64       968.72     2.034            5     1.715      5.271     28.98573  20.5845        111
 6.27   0.1179    413.1812   1562.3481 -66.73       267.04     1.290            5     0.839      4.071     28.99557  21.9836        112
 7.44   0.0466    420.8901    135.0501 -20.96       675.94     2.260            5     1.326      8.728     28.97589  20.9752        113
 8.75   0.1005    415.0182    559.5004   1.37          313     0.837            5     0.700      4.864     28.97589  21.8111        114
 7.60   0.1319    418.4615   1204.2999 -71.56       238.48     0.941            5     0.836      4.322     28.97261  22.1064        115
 6.03   0.1522    419.3803   1580.5785 -42.28       206.84     0.995            5     0.870      3.581     28.99557  22.2609        116
 4.62   0.1475    419.4363    774.5581  18.02       213.56     1.286            5     0.939      2.933     29.00213  22.2262        117
 3.63   0.0204    432.7462   1422.1240 -52.25      1541.44     1.663            5     1.544      3.269     28.97589  20.0802        118
 6.80   0.0599    430.1894    719.5887  43.18       524.92     1.803            5     1.480      7.739     28.97589  21.2498        119
 5.50   0.0594    426.3690   1179.5669  10.84       530.14     1.657            5     1.342      4.667     28.99885  21.2390        120
 5.07   0.0014    427.0954    432.6257  -1.69      22072.4     3.431            5     1.192      5.700     28.97917  17.1904        121
 4.14   0.0072    467.6600    850.5516  22.79       4378.3     8.358            5     2.408     13.962     28.98245  18.9467        122
 5.98   0.1702    424.0011   1063.5629   2.28       184.92     1.079            5     0.789      3.195     28.98573  22.3825        123
 3.50   0.0051    450.3410     21.3963  37.78      6131.96     1.967            5     1.965      3.467     29.00869  18.5810        124
 4.62   0.0588    433.9192    151.2261  13.50       535.52     1.335            5     1.213      3.194     28.98901  21.2281        125
 5.89   0.1684    426.0779    300.2060  -2.90          187     0.915            5     0.737      3.212     28.99229  22.3704        126
 3.50   0.0045    457.8066     34.5926 -14.53      6977.84     2.083            5     1.997      3.540     28.98245  18.4407        127
 4.94   0.0321    444.9756    122.3957 -47.76       980.38     1.844            5     1.604      4.734     28.98901  20.5715        128
 4.02   0.0495    439.8514    305.6831 -45.05       635.84     1.420            5     1.309      3.347     28.97261  21.0416        129
 6.85   0.1808    433.3625    406.2980 -70.94          174     0.976            5     0.591      3.349     28.96276  22.4486        130
 6.67   0.3196    433.8379    353.1779 -45.15        98.54     0.750            5     0.568      2.709     28.99557  23.0660        131
 6.32   0.1163    443.7060    655.2996   7.65       270.42     1.095            5     0.940      4.643     28.95948  21.9699        132
 7.17   0.1324    443.4988    174.2926 -39.44       237.62     1.064            5     0.809      4.439     28.96276  22.1103        133
 8.02   0.4388    442.3320    959.6599  44.66     71.71999     0.580            5     0.332      2.809     28.97589  23.4109        134
 4.02   0.0840    452.5686   1533.3232 -50.76       374.62     1.456            5     1.123      3.291     28.98573  21.6160        135
 3.77   0.0143    463.6306    468.6874  86.51       2204.2     1.760            5     1.681      3.445     28.98573  19.6919        136
 9.51   0.1917    445.5110   1505.4846 -46.00       164.08     0.501            5     0.498      3.009     28.96933  22.5124        137
 5.91   0.1988    454.1760   1224.4894  65.01       158.34     1.048            5     0.853      3.231     28.98573  22.5510        138
