#   1 KRON_RADIUS            Kron apertures in units of A or B                         
#   2 MAGERR_APER            RMS error vector for fixed aperture mag.                   [mag]
#   3 Y_IMAGE                Object position along y                                    [pixel]
#   4 X_IMAGE                Object position along x                                    [pixel]
#   5 THETA_IMAGE            Position angle (CCW/x)                                     [deg]
#   6 FLUX_APER              Flux vector within fixed circular aperture(s)              [count]
#   7 A_IMAGE                Profile RMS along major axis                               [pixel]
#   8 THRESHOLD              Detection threshold above background                       [count]
#   9 B_IMAGE                Profile RMS along minor axis                               [pixel]
#  10 FLUX_RADIUS            Fraction-of-light radii                                    [pixel]
#  11 FLUXERR_APER           RMS error vector for aperture flux(es)                     [count]
#  12 MAG_APER               Fixed aperture magnitude vector                            [mag]
#  13 NUMBER                 Running object number                                     
 3.77   0.0010     52.3656     61.8381  -4.11      32286.2     5.767           25     5.156     10.494     28.97865  16.7775          1
 3.50   0.0060     15.7502    983.4642 -87.95      5200.36     4.430           25     1.919      7.040     28.96881  18.7599          2
 3.50   0.0065     17.0166     89.5020 -27.30      4805.62     1.584           25     1.535      3.180     28.96553  18.8456          3
 3.50   0.0026     13.8130   1444.2402 -50.19     11944.38     1.667           25     1.653      3.259     28.97865  17.8571          4
 4.41   0.0555     16.2316    382.9453 -68.30       566.62     1.179           25     1.108      3.620     28.98192  21.1668          5
 6.18   0.1078     12.9454    839.5240 -53.69       291.66     1.159           25     0.755      4.581     28.96225  21.8878          6
 6.27   0.1975      5.8499   1467.8611 -42.10       152.04     0.830           25     0.681      3.553     27.65692  22.5951          7
 4.92   0.0646      3.4645    143.1826 -89.94       420.18     1.495           25     1.267      4.510     25.00903  21.4914          8
 6.83   0.1599      3.8580    183.6363 -19.12       173.34     0.927           25     0.685      4.376     25.52039  22.4528          9
 3.50   0.1626      9.2221   1182.3053  14.57       193.46     0.946           25     0.830      2.244     28.96881  22.3335         10
 7.11   0.3364      1.5458    302.4866  39.07        71.76     0.504           25     0.494      2.727     22.22561  23.4103         11
 3.50   0.0007     58.9477   1076.9407  75.51     47404.66     2.045           25     1.922      3.573     28.96553  16.3604         12
 3.88   0.0308     23.8041    365.4746  73.25      1022.98     1.319           25     1.260      3.185     28.99175  20.5253         13
 5.46   0.1822     17.0724   1213.4948  89.94       172.62     0.771           25     0.500      2.832     28.95897  22.4573         14
 7.67   0.4603     14.5140   1561.4911 -11.76         68.3     0.500           25     0.500      3.000     28.94584  23.4639         15
 4.90   0.0778     23.0687    381.3569  68.74       404.62     1.192           25     1.060      3.871     28.97209  21.5324         16
 3.84   0.0558     32.9996   1108.4679  65.17        564.1     1.995           25     1.108      4.050     28.98848  21.1716         17
 5.84   0.1240     22.8925    696.8405 -45.60        253.5     0.813           25     0.665      3.681     28.94584  22.0401         18
 4.81   0.0740     32.3472    325.0265 -20.34       425.66     1.271           25     1.126      3.951      28.9852  21.4773         19
 3.50   0.1141     37.1702   1519.9764 -87.99        275.7     1.004           25     0.908      2.853     28.97537  21.9489         20
 3.50   0.0986     37.9992   1169.0452  15.42        319.3     1.136           25     1.112      2.880     28.99175  21.7895         21
 6.78   0.1760     33.7591     14.6046  71.89       178.88     0.734           25     0.455      2.798     28.98192  22.4186         22
 5.40   0.0906     43.4825    438.4967 -73.85       346.78     1.314           25     1.121      4.215     28.94584  21.6999         23
 3.50   0.0007     79.0643    535.8630 -57.44     46274.52     1.925           25     1.904      3.491     28.96553  16.3866         24
 4.38   0.0922     41.5828    913.7358 -33.51        341.4     1.061           25     0.919      2.888     28.98192  21.7168         25
 5.75   0.2600     38.6411   1224.6516 -43.67       121.02     0.867           25     0.523      3.203     28.97537  22.8429         26
 5.56   0.1285     49.4918   1433.8137 -65.21       244.92     0.954           25     0.923      3.379     28.97209  22.0774         27
 5.18   0.1215     49.4587    263.5749 -66.18       259.18     1.195           25     0.955      3.905      28.9852  22.0160         28
 7.80   0.4109     42.3415    226.6744  45.68        76.54     0.577           25     0.333      2.168     28.96225  23.3403         29
 7.05   0.9349     41.6549    999.6901 -46.62        33.64     0.572           25     0.336      2.502     28.95897  24.2329         30
 8.16   0.1963     46.6941    664.6706 -43.78       160.18     0.563           25     0.340      2.917     28.95897  22.5385         31
 6.12   0.1848     64.8561   1146.4165  14.61       170.28     1.051           25     0.890      4.158     28.98192  22.4721         32
 3.50   0.0154     74.1151    126.4486 -21.43      2039.34     1.427           25     1.348      3.144     28.96553  19.7763         33
 6.35   1.7940     65.5015   1514.5056 -45.72        17.52     0.501           25     0.499      2.559     28.94256  24.9412         34
 8.49   0.4276     66.5318   1414.4746 -44.06        73.52     0.505           25     0.494      3.028     28.94913  23.3840         35
 6.53   0.3676     70.9779   1320.5319 -89.11        85.62     0.789           25     0.499      2.914      28.9852  23.2186         36
 4.15   0.0616     81.3945    419.8273  85.88       510.64     1.391           25     1.173      3.761     28.97537  21.2797         37
 3.50   0.0005    120.9218    787.4944 -42.80      66572.6     1.968           25     1.946      3.528     28.95241  15.9918         38
 4.45   0.0329     89.6612    375.3125  -8.91          955     2.201           25     1.789      5.856     28.95897  20.6000         39
 6.18   0.2582     78.6917   1031.9766  -2.38       121.84     0.736           25     0.670      3.338     28.96553  22.8355         40
 3.56   0.0106     95.6111     54.3885  -6.13      2969.18     1.499           25     1.459      3.221     28.96225  19.3684         41
 7.29   0.1417     82.9674    930.9600  44.16       222.14     0.895           25     0.533      4.542      28.9852  22.1834         42
 5.73   0.1104     87.5743    757.3250  46.61       284.92     1.080           25     0.936      4.493     28.97209  21.9132         43
 6.11   0.1781     87.1081   1358.1217 -47.31       176.54     0.830           25     0.673      3.468     28.95569  22.4329         44
 6.78   0.1793     90.7097   1043.9907  53.54       175.46     1.023           25     0.635      4.006     28.96553  22.4396         45
 4.26   0.0968     90.5881    494.1471 -16.01        325.2     1.006           25     0.941      2.859     28.98848  21.7696         46
 9.28   0.1417     86.4881    862.0151 -32.06       222.12     0.798           25     0.313      3.410     28.97537  22.1835         47
 7.82   0.1781     87.6720    810.6771 -45.24       176.56     0.570           25     0.337      2.712     28.95897  22.4328         48
 4.33   0.0499     97.0989    451.1919 -14.65       630.14     1.886           25     1.112      4.219     28.96225  21.0514         49
 7.09   0.2717     94.3153    387.6701  44.29       115.74     0.568           25     0.338      2.295     28.95241  22.8913         50
 8.24   0.2037    101.5233    517.4830  44.00       154.38     0.503           25     0.496      3.019     28.96225  22.5785         51
 4.85   0.1810    107.1691    861.1779 -44.69       173.82     0.793           25     0.684      2.699     28.97537  22.4497         52
 6.49   0.1497    114.3650    414.1011  78.71       209.96     0.993           25     0.745      3.591     28.94584  22.2447         53
 7.57   0.8976    109.7253   1513.3552  40.66        35.04     0.559           25     0.340      2.604     28.96225  24.1886         54
 3.86   0.1584    116.2039    989.3252  17.90       198.72     0.959           25     0.862      2.805     28.99175  22.3044         55
 3.92   0.1881    116.6458    152.3968 -48.96       167.36     0.987           25     0.861      2.695     28.99175  22.4909         56
 4.90   0.0986    116.3229     65.0629   2.91       318.92     1.238           25     0.962      3.838     28.95897  21.7908         57
 5.23   0.1315    125.3040    492.6458   3.72       239.08     1.313           25     0.899      3.693     28.94584  22.1036         58
 3.50   0.0008    161.4527   1466.8275 -62.60     39200.26     1.887           25     1.855      3.482      28.9852  16.5668         59
 4.88   0.0980    130.2532    416.4069  19.77       321.34     0.953           25     0.914      3.106     28.99831  21.7826         60
 5.93   0.1773    128.2914    884.0579   6.49       177.36     0.731           25     0.675      3.232     28.95569  22.4279         61
 5.03   0.2981    127.2593   1476.9744   1.55       105.58     0.661           25     0.438      2.010      28.9852  22.9910         62
 7.12   0.0958    142.3000    885.0659  72.53        328.2     1.010           25     0.747      5.078     28.96553  21.7597         63
 3.50   0.0031    169.2886    875.6515 -60.73      10074.3     1.717           25     1.674      3.331     28.95897  18.0420         64
 3.50   0.1750    150.5815   1278.7736  82.35       179.82     0.961           25     0.925      2.639     28.97865  22.4129         65
 4.49   0.2213    154.5294     80.6534 -67.71       142.12     0.937           25     0.808      2.810     28.96225  22.6684         66
 4.01   0.0339    164.1869   1444.2914  47.23       927.04     1.315           25     1.220      3.331     28.97209  20.6323         67
 5.87   0.4582    155.0629   1578.6616 -89.90        68.66     0.730           25     0.649      2.080     28.96881  23.4582         68
 3.50   0.0477    165.7468    102.6053 -27.35       660.62     1.257           25     1.163      2.815     28.99831  21.0001         69
 5.28   0.1518    165.0033    574.9867  75.43        207.2     1.228           25     0.718      3.484     28.96553  22.2590         70
 4.67   0.0953    168.4867   1367.4685  20.67       330.02     1.009           25     0.988      3.009     28.94913  21.7536         71
 5.84   0.1146    167.9813    649.5107   1.35       274.48     1.038           25     0.782      3.852     28.97209  21.9537         72
 4.73   0.0681    179.2377    573.5081  32.97        461.6     1.568           25     1.257      4.595     28.95569  21.3893         73
 5.49   0.0570    185.8672   1353.5756 -50.21       552.58     1.474           25     1.273      5.146     28.97865  21.1940         74
 3.93   0.0270    191.7892   1349.0759 -17.92      1165.44     1.315           25     1.260      3.435     28.99175  20.3838         75
 3.73   0.0081    209.8528    826.1118  -7.48      3881.92     4.622           25     2.153      8.002     28.95241  19.0774         76
 4.16   0.0100    229.0615    560.6190 -23.24      3148.58     3.757           25     3.430      8.763     28.97865  19.3047         77
 3.50   0.0150    205.7428    547.4331 -50.08      2092.22     1.413           25     1.388      2.995     28.98192  19.7485         78
 6.65   0.1825    195.0215    447.7135 -85.09        172.4     0.732           25     0.676      2.953     28.97209  22.4587         79
 3.50   0.0147    211.4102   1304.6077 -40.53       2141.7     1.411           25     1.380      3.077     28.96225  19.7231         80
 4.33   0.0544    209.9548    683.0822 -80.09       578.16     1.518           25     1.217      3.771     28.96225  21.1449         81
 6.95   0.1945    204.8301    182.1670 -44.93        161.8     0.758           25     0.571      3.130      28.9852  22.5276         82
 3.78   0.1608    208.1468   1224.1273 -14.49       195.56     0.861           25     0.844      2.526     28.96225  22.3218         83
 3.50   0.0003    258.9254    995.8104 -43.31       110160     2.092           25     2.025      3.539     28.99175  15.4449         84
 7.67   0.1141    204.5729    935.2369 -19.75       275.72     0.733           25     0.455      3.605     28.97537  21.9488         85
 3.50   0.0128    223.2786   1224.6028  20.19      2465.68     1.411           25     1.403      3.107     28.98192  19.5702         86
 6.28   0.0950    216.9193    739.7366 -46.49       331.02     1.323           25     1.013      5.122     28.95569  21.7504         87
 3.50   0.0374    221.6176    773.3508 -32.33        840.7     1.262           25     1.233      2.996     28.97865  20.7384         88
 7.43   0.1410    216.1229    881.6307 -66.69       223.08     1.120           25     0.572      5.124     28.97209  22.1788         89
 3.50   0.0004    264.9534     65.7731 -32.20     83840.66     2.028           25     1.996      3.501     28.98848  15.7414         90
 4.32   0.0215    243.0270    111.0771 -85.87      1462.98     2.181           25     1.625      5.349     28.97209  20.1369         91
 6.77   0.0865    229.2600    546.3682 -62.66        363.9     1.147           25     0.927      5.459     28.97865  21.6475         92
 4.17   0.0082    254.5277    611.2526 -44.96      3831.72     2.599           25     2.118      5.884     28.96225  19.0915         93
 4.56   0.0510    238.4033    837.2197  -0.07       617.36     1.538           25     1.343      4.333     28.97209  21.0737         94
 7.00   2.0470    232.2851   1551.6707  42.41        15.36     0.554           25     0.344      1.680     28.95241  25.0840         95
 6.05   0.2784    238.8988   1477.2656 -62.39       113.02     1.007           25     0.650      3.335     28.96881  22.9171         96
 5.07   0.0513    249.5192    105.7907 -39.60       613.32     1.353           25     1.158      4.483     28.97209  21.0808         97
 6.74   0.2152    247.9741   1412.9532  34.10       146.32     0.809           25     0.777      3.913     28.98848  22.6367         98
 6.52   0.2104    250.1559   1549.1664 -46.24       149.62     0.825           25     0.674      3.951     28.98848  22.6125         99
 8.32   0.2433    248.6070    149.8001  18.07       129.28     0.742           25     0.453      3.548     28.96225  22.7712        100
 3.50   0.0014    286.7198   1484.9985 -34.86     21914.94     1.803           25     1.773      3.420     28.98192  17.1981        101
 3.50   0.0059    281.0606   1520.9103  78.86      5341.14     1.578           25     1.503      3.240     28.96225  18.7309        102
 7.88   0.1475    264.4987    722.9905 -89.56       213.18     0.852           25     0.694      5.114     28.96225  22.2281        103
 6.08   0.1246    264.5280    122.1684 -89.38       252.46     0.938           25     0.736      3.900     28.97537  22.0445        104
 4.61   0.0583    269.9497   1272.2324   9.29       539.58     1.380           25     1.179      4.474     28.98192  21.2199        105
 7.75   0.4554    270.3510   1248.7195  48.76        69.06     0.560           25     0.340      2.320     28.96225  23.4519        106
 3.50   0.0019    302.1461    199.9575  -1.01     16732.84     1.754           25     1.748      3.338     28.97537  17.4911        107
 8.12   0.3077    278.4984    555.4962 -45.05       102.18     0.503           25     0.497      3.020     28.95241  23.0266        108
 4.55   0.0311    292.5302   1474.2421 -21.60      1012.74     1.506           25     1.241      4.282     28.97537  20.5363        109
 5.27   0.1377    291.4895    246.7583 -31.60       228.38     1.130           25     0.933      3.745     28.96553  22.1534        110
 3.50   0.0356    301.2911    561.8903  -3.92       882.54     1.383           25     1.345      3.168     28.94584  20.6857        111
 5.62   0.0613    307.7112     83.4766  74.73       513.14     1.692           25     1.285      5.676     28.94913  21.2744        112
 3.50   0.0028    321.1615    695.6137 -47.99     11303.12     1.682           25     1.667      3.262      28.9852  17.9170        113
 3.98   0.0367    320.8418    639.7523 -62.45        856.8     2.244           25     1.508      5.179      28.9852  20.7178        114
 4.25   0.0154    326.5584    593.7395  -1.29      2048.42     1.915           25     1.868      4.832     28.97537  19.7715        115
 7.56   0.1159    310.0077    315.3219  87.28       271.52     0.749           25     0.679      4.495     28.98192  21.9655        116
 5.25   0.1563    315.9547    225.1773  -9.26        201.4     1.107           25     0.728      3.316     28.98192  22.2899        117
 3.71   0.0632    331.2021     91.6054 -20.61       497.84     1.213           25     1.064      2.790     28.96881  21.3073        118
 4.22   0.0815    328.4932   1544.6573   0.89       385.94     1.102           25     0.968      3.057     28.95569  21.5837        119
 3.62   0.0274    349.0294     52.9462 -35.30      1147.22     1.319           25     1.295      3.138      28.9852  20.4009        120
 3.50   0.0027    367.2354    759.4962 -26.09      11771.4     1.732           25     1.685      3.320     28.94913  17.8729        121
 5.45   0.1162    347.3217     40.6653 -50.68       270.66     0.987           25     0.848      3.457     28.95241  21.9689        122
 3.50   0.0146    360.3835   1498.9019 -13.41      2161.02     1.548           25     1.385      3.216     28.96553  19.7134        123
 3.50   0.0006    394.2159    229.6349 -70.43     50462.38     1.952           25     1.907      3.481      28.9852  16.2926        124
 3.50   0.0582    359.7347   1032.5051  38.29        540.2     1.217           25     1.170      2.713     28.96553  21.2186        125
 4.74   0.0432    374.2932    752.1290  51.98       728.62     2.168           25     1.272      5.597     28.95897  20.8937        126
 4.80   0.0931    369.4625     69.8472 -56.93       337.96     1.299           25     1.090      3.779     28.96553  21.7278        127
 3.74   0.0689    372.4083   1082.3356 -32.85       456.78     1.433           25     1.350      3.775     28.99503  21.4007        128
 6.16   0.1370    368.3817    208.3981 -49.89       229.66     1.080           25     0.933      4.172     28.96881  22.1473        129
 3.99   0.1730    374.3221     85.4926 -20.10       181.82     0.963           25     0.937      2.968     28.95569  22.4009        130
 3.50   0.0038    396.2272   1459.7446 -45.85      8198.18     1.624           25     1.598      3.217      28.9852  18.2657        131
 4.45   0.0927    379.1256    123.9208  61.23       339.36     1.113           25     1.110      3.398     28.96225  21.7233        132
 3.50   0.0033    397.1835    352.8708 -58.84      9467.24     1.677           25     1.629      3.235     28.99175  18.1094        133
 5.17   0.1073    381.4269     65.5967  24.25       293.16     1.219           25     0.932      3.585     28.97209  21.8822        134
 3.50   0.0159    392.8812   1087.1532  12.39      1977.78     1.405           25     1.374      2.938     28.96225  19.8096        135
 5.14   0.0442    395.6750    625.1777 -87.51       711.88     1.901           25     1.613      5.986     28.98192  20.9190        136
 7.24   0.1066    381.7726      9.7077   6.31       295.08     0.910           25     0.766      5.250     28.96553  21.8752        137
 4.10   0.1699    388.2085   1193.8507 -68.22       185.34     0.938           25     0.836      2.696     28.99175  22.3801        138
