#   1 KRON_RADIUS            Kron apertures in units of A or B                         
#   2 MAGERR_APER            RMS error vector for fixed aperture mag.                   [mag]
#   3 Y_IMAGE                Object position along y                                    [pixel]
#   4 X_IMAGE                Object position along x                                    [pixel]
#   5 THETA_IMAGE            Position angle (CCW/x)                                     [deg]
#   6 FLUX_APER              Flux vector within fixed circular aperture(s)              [count]
#   7 A_IMAGE                Profile RMS along major axis                               [pixel]
#   8 THRESHOLD              Detection threshold above background                       [count]
#   9 B_IMAGE                Profile RMS along minor axis                               [pixel]
#  10 FLUX_RADIUS            Fraction-of-light radii                                    [pixel]
#  11 FLUXERR_APER           RMS error vector for aperture flux(es)                     [count]
#  12 MAG_APER               Fixed aperture magnitude vector                            [mag]
#  13 NUMBER                 Running object number                                     
 3.50   0.0002    181.0222   1105.8365 -40.31     506196.6     6.539     18.90559     5.885      7.647     77.69909  13.7892          1
 3.68   0.0028     52.4050     61.7681  -2.27     29741.87     6.359     18.90559     5.786     11.255     77.70788  16.8666          2
 3.50   0.0018     58.9521   1076.9418  81.32     47883.59     2.093     18.90559     1.972      3.263     77.68151  16.3495          3
 3.50   0.0168     15.7237    983.4587 -87.90     5006.351     4.509     18.90559     1.979      6.663     77.66393  18.8012          4
 3.50   0.0210     17.0120     89.4810 -42.63     4011.155     1.663     18.90559     1.619      3.111     77.70788  19.0418          5
 3.50   0.0082     13.8143   1444.2383 -42.28     10232.45     1.721     18.90559     1.697      3.061     77.71667  18.0250          6
 3.64   0.2257     16.2665    382.9738  86.43     373.9175     1.231     18.90559     1.191      2.796     77.69909  21.6181          7
 4.95   0.6176     13.1674    839.5089 -76.27     136.5443     1.479     18.90559     0.949      4.059     77.65513  22.7118          8
 3.64   0.3954      9.2333   1182.3411 -70.45     213.4443     1.026     18.90559     0.964      2.551     77.70788  22.2268          9
 4.21   0.6638      5.6605   1467.9125   8.54     120.4994     1.152     18.90559     0.903      2.256     73.65622  22.8475         10
 4.51   0.1870      3.6078    143.2684  59.55     392.3638     1.696     18.90559     1.490      3.207     67.55275  21.5658         11
 5.88   0.5924      3.6479    183.5916 -38.45     124.1742     1.080     18.90559     0.962      2.946     67.73448  22.8149         12
 6.99   0.5496      2.5114    843.4935  44.82     125.4448     0.507     18.90559     0.493      2.743     63.48767  22.8039         13
 6.37   0.3237      1.8622    302.3619  20.33     204.4854     0.906     18.90559     0.677      2.609     60.95218  22.2733         14
 3.91   0.0978     23.8545    365.4416  -3.18     862.7438     1.390     18.90559     1.345      3.023     77.68151  20.7103         15
 4.93  99.0000     14.8386   1561.6169 -19.92    -53.15703     0.905     18.90559     0.686      3.335     77.71667  99.0000         16
 4.67   3.2926     17.1879   1213.4882  -0.33     25.62792     0.921     18.90559     0.725      3.318     77.69909  24.5282         17
 7.39   0.3281     15.4944    192.9995 -32.51     257.0737     0.786     18.90559     0.318      4.607     77.66393  22.0249         18
 4.18   0.1987     33.0747   1108.5681  65.68     424.5888     2.036     18.90559     1.213      4.146     77.67271  21.4801         19
 3.82   0.2088     23.0219    381.4543   6.25     404.2425     1.319     18.90559     1.170      3.785     77.72546  21.5334         20
 5.46   8.4617     22.9778    696.8055  -3.26     9.969826     0.886     18.90559     0.748      3.488     77.68151  25.5533         21
 7.61   0.8271     20.6041    212.2110 -18.94     101.9589     0.744     18.90559     0.450      2.074     77.65513  23.0289         22
 6.44   0.5312     23.9324   1451.8411 -46.75     158.8184     0.843     18.90559     0.652      2.347      77.6903  22.5477         23
 4.88   0.1426     32.3874    325.0325 -26.40     591.9181     1.486     18.90559     1.262      5.464     77.69909  21.1193         24
 7.47   1.7350     26.2151    701.0262  -0.99     48.62981     0.703     18.90559     0.411      3.941      77.6903  23.8327         25
 6.50   0.5683     33.5743     14.7714 -89.15     148.4672     0.947     18.90559     0.712      3.281     77.69909  22.6209         26
 3.57   0.7861     37.0450   1519.9745 -74.77     107.3827     1.093     18.90559     1.076      2.134     77.72546  22.9727         27
 4.28   0.2668     38.0067   1169.0526  23.11     316.4421     1.223     18.90559     1.198      3.764     77.75181  21.7993         28
 3.71   0.3260     41.6028    913.7512 -64.32     259.0039     1.133     18.90559     1.039      2.682     77.74303  22.0167         29
 3.50   0.0018     79.0617    535.8607 -66.40     45728.33     1.966     18.90559     1.931      3.091     77.67271  16.3995         30
 4.97   0.2306     43.5270    438.5287 -52.86     365.6242     1.481     18.90559     1.242      3.583     77.61994  21.6424         31
 4.10   1.2279     38.6270   1224.5396 -37.16     68.72928     1.156     18.90559     0.777      1.964     77.70788  23.4571         32
 4.55   0.2768     49.4868    263.5109  89.83     304.5605     1.455     18.90559     1.089      3.460     77.63754  21.8408         33
 4.50  99.0000     41.5007    999.9727  -1.62     -2.81194     0.790     18.90559     0.500      0.920     77.63754  99.0000         34
 7.08  99.0000     42.5779    226.7772  19.95    -23.74513     0.748     18.90559     0.450      1.535      77.6903  99.0000         35
 7.84   0.7421     45.7927    473.3825 -71.71     113.6552     0.746     18.90559     0.449      2.995     77.66393  22.9110         36
 4.11   1.3334     49.4914   1433.9777  -4.26     63.25601     1.069     18.90559     0.925      2.495     77.66393  23.5472         37
 5.09   5.8271     46.7959   1429.1587  44.33     14.48421     0.809     18.90559     0.669      3.487     77.71667  25.1478         38
 5.94   0.4713     46.8517    664.8470 -43.30     179.0714     0.825     18.90559     0.669      3.712     77.71667  22.4174         39
 6.42   0.3346     50.4846    119.9498   0.88     252.0155     0.780     18.90559     0.500      3.219     77.65513  22.0464         40
 3.52   0.0514     74.1052    126.4799 -19.14     1639.625     1.475     18.90559     1.433      2.799     77.62874  20.0131         41
 7.34  99.0000     57.4917   1240.0228 -32.67    -10.04062     0.781     18.90559     0.319      1.572     77.66393  99.0000         42
 4.98   0.4716     64.9824   1146.2659   9.37     178.9485     1.374     18.90559     1.141      4.288     77.70788  22.4182         43
 7.06   0.2871     68.4563     17.7707  88.90     294.0109     0.996     18.90559     0.721      4.062     77.71667  21.8791         44
 0.00  99.0000     66.8790   1414.1798 -28.14    -45.92309     0.963     18.90559     0.744     -7.997     77.69909  99.0000         45
 6.93  99.0000     65.5014   1514.5054 -45.69    -152.8366     0.501     18.90559     0.499      1.495     77.60235  99.0000         46
 5.53   0.5695     70.7447   1320.8502 -68.46     148.1441     0.911     18.90559     0.682      2.724      77.6903  22.6233         47
 3.50   0.0012    120.9251    787.4896 -59.16     67854.46     2.018     18.90559     1.992      3.164     77.62874  15.9711         48
 3.90   0.2230     81.3288    419.7149 -76.83     378.0421     1.520     18.90559     1.278      3.876     77.62874  21.6061         49
 3.94   0.0859     89.6612    375.3916 -19.36     983.2109     2.301     18.90559     2.014      4.683     77.74303  20.5684         50
 8.71   0.2271     75.8810     80.4187 -26.69     371.6783     1.370     18.90559     0.840      8.220     77.70788  21.6246         51
 4.79   8.2361     78.7909   1031.8494 -33.64     10.24876     0.892     18.90559     0.849      2.317     77.72546  25.5233         52
 3.50   0.0003    192.5951    316.2862 -64.39     291151.5     2.878     18.90559     2.293      3.161     77.68151  14.3897         53
 3.50   0.0351     95.5876     54.3806 -29.57     2400.016     1.614     18.90559     1.584      3.043     77.67271  19.5995         54
 5.86  99.0000     87.0195   1358.1309 -88.30    -22.71545     0.995     18.90559     0.847      0.516     77.73424  99.0000         55
 5.84   0.5951     87.4903    757.1628  35.83     141.6971     1.165     18.90559     1.017      5.308     77.64633  22.6716         56
 6.63   0.7613     82.9746    930.8279  20.66     110.8396     1.160     18.90559     0.723      2.497     77.69909  22.9383         57
 6.93   0.5074     86.4810    862.1655 -47.77     166.2658     1.108     18.90559     0.733      5.463     77.68151  22.4980         58
 6.86  99.0000     85.0348   1559.2076  52.97    -25.38786     0.930     18.90559     0.470      1.528     77.69909  99.0000         59
 6.00   0.4074     90.8526   1043.8802  55.00      206.949     1.397     18.90559     0.799      2.654     77.63754  22.2603         60
 3.82   0.3575     90.7001    494.0876   0.64     235.7322     1.105     18.90559     1.019      3.009     77.59354  22.1190         61
 4.28   0.1310     97.1019    451.1805 -12.65     643.7772     1.924     18.90559     1.255      5.807     77.64633  21.0282         62
 5.06   0.5468     94.6267   1074.8350  39.51     154.3235     1.336     18.90559     1.126      5.215     77.69909  22.5789         63
 7.44   0.3392     85.3500    923.3128 -46.64     248.6084     0.575     18.90559     0.334      2.050     77.64633  22.0612         64
 6.97   0.5138     87.8495    810.6924 -59.25     164.0865     0.869     18.90559     0.590      4.756     77.63754  22.5123         65
 6.33   0.7500     94.0801    387.5246  89.88     112.4576     0.774     18.90559     0.499      1.900     77.66393  22.9225         66
 4.03   0.0031    233.9082    401.8713 -47.20     27282.16     8.632     18.90559     7.090     16.428     77.63754  16.9603         67
 6.55   0.6040    101.8555    517.3245  20.24     139.6212     0.933     18.90559     0.683      4.090     77.65513  22.6876         68
 5.90   0.2841    112.7964    268.6332  80.50     297.0435     1.522     18.90559     1.118      5.892     77.70788  21.8679         69
 4.71   0.4843    107.3404    861.3599  41.75     174.2291     0.979     18.90559     0.859      1.105     77.69909  22.4472         70
 6.49   0.4162    106.1678   1098.1515 -41.98     202.7896     0.806     18.90559     0.676      4.313     77.71667  22.2824         71
 6.85   2.0859    106.9845   1420.9861 -44.46     40.44808     0.881     18.90559     0.534      3.221      77.6903  24.0328         72
 7.78   0.5500    106.4694    180.4571 -48.20     153.3268     0.503     18.90559     0.495      3.016     77.65513  22.5860         73
 5.35   0.3505    114.2177    414.3000 -75.12     240.5747     1.174     18.90559     0.927      4.384     77.64633  22.0969         74
 5.05  99.0000    109.9821   1513.4705   1.43    -177.6794     0.806     18.90559     0.687      0.115     77.72546  99.0000         75
 3.50   0.4479    116.1276    989.3898 -72.21     188.4409     1.139     18.90559     0.958      2.716     77.72546  22.3621         76
 4.15   0.3058    116.6369    152.4058  53.02     275.9581     1.006     18.90559     0.952      2.503     77.69909  21.9479         77
 5.52   0.2788    116.3723     65.2133   7.35     302.6981     1.480     18.90559     0.950      4.222     77.69909  21.8475         78
 3.50   0.0022    161.4548   1466.8241 -54.44     38391.82     1.934     18.90559     1.900      3.161     77.72546  16.5894         79
 5.02   0.3543    125.2403    492.5927  -6.86     238.1942     1.464     18.90559     1.092      3.874     77.70788  22.1077         80
 8.11   0.6842    117.6457    911.6918 -47.04     123.2245     0.575     18.90559     0.334      1.963     77.62874  22.8233         81
 4.68   0.3401    130.2387    416.2955 -27.12     247.8841     1.014     18.90559     0.997      2.983     77.62874  22.0644         82
 4.35  99.0000    127.1574   1476.9080  43.78    -107.3363     0.822     18.90559     0.651      2.513     77.61994  99.0000         83
 5.12   0.7942    128.0846    884.0657 -58.07     106.1496     0.780     18.90559     0.779      1.872     77.62874  22.9852         84
 5.84   0.4941    141.3550    884.3093  52.16     170.6398     2.131     18.90559     0.964      3.608     77.63754  22.4698         85
 8.30   0.9529    134.6447     97.6783 -46.36     88.50098     0.581     18.90559     0.330      3.489     77.65513  23.1826         86
 5.23   0.2779    145.7969    352.2505 -48.50     303.7954     1.407     18.90559     1.153      5.606     77.74303  21.8435         87
 0.00  99.0000    138.1987   1599.6450 -72.96    -4764.054     0.752     18.90559     0.444      4.510      58.7848  99.0000         88
 3.50   0.0096    169.2841    875.6372 -78.34     8760.653     1.768     18.90559     1.723      3.033     77.68151  18.1937         89
 3.99   0.3995    150.7436   1278.8497  28.32     211.1894     1.078     18.90559     1.029      2.906     77.68151  22.2383         90
 4.29   0.1246    164.2198   1444.2903  61.79     676.9344     1.450     18.90559     1.305      2.883     77.68151  20.9736         91
 3.87   5.4265    154.5441     80.6298 -48.01     15.55332     1.066     18.90559     0.917      1.485     77.71667  25.0704         92
 6.00   5.0254    155.1815   1578.5652   5.70     16.79105     0.898     18.90559     0.727      1.394     77.69909  24.9873         93
 7.51   0.9699    154.5055    822.5117  46.03     86.89893     0.501     18.90559     0.498      1.665     77.61115  23.2025         94
 3.50   0.1434    165.7383    102.5978 -37.77     588.7691     1.311     18.90559     1.165      2.509     77.74303  21.1251         95
 4.87   0.5087    165.0086    574.7706  86.48      165.864     1.251     18.90559     0.963      2.876     77.69909  22.5006         96
 7.70   0.2024    165.8022   1054.6754 -60.40     416.9984     1.211     18.90559     1.000      7.269     77.71667  21.4997         97
 8.26   0.4551    159.3821    491.2143  17.93     185.3859     0.756     18.90559     0.448      3.826      77.6903  22.3798         98
 5.10   0.6959    164.3577   1196.5062  18.24     121.1346     0.945     18.90559     0.817      4.101     77.61994  22.8418         99
 4.96   0.4315    167.8831    649.7219  36.86     195.4189     1.237     18.90559     1.028      4.902     77.64633  22.3226        100
 5.03   0.4285    168.4620   1367.5079  -4.70     196.8352     1.259     18.90559     0.968      2.755     77.66393  22.3147        101
 6.77   0.8701    174.8292   1198.9620 -74.73     96.99529     1.100     18.90559     0.850      5.734     77.70788  23.0831        102
 4.54   0.3066    179.3327    573.3319  24.33     275.0056     1.714     18.90559     1.330      2.730     77.63754  21.9516        103
 5.66   0.2057    185.8885   1353.4348 -69.02     410.1365     1.580     18.90559     1.377      4.177     77.67271  21.5177        104
 4.12   0.0947    191.7545   1349.0994  -8.69     890.2516     1.394     18.90559     1.366      3.020     77.60235  20.6762        105
 6.94   0.2541    189.5625   1026.0391  51.22       332.17     1.298     18.90559     1.107      5.708     77.72546  21.7466        106
 8.39   0.3679    182.3929     58.7790 -19.01     229.3278     0.766     18.90559     0.444      2.204     77.68151  22.1489        107
 3.61   0.0230    209.8589    826.0873  -7.87     3673.179     4.937     18.90559     2.269      7.695     77.65513  19.1374        108
 3.95   0.0263    229.0334    560.6039 -26.64     3213.028     3.951     18.90559     3.606      8.347     77.70788  19.2827        109
 7.27   0.6500    186.4370    834.3389  -8.75     129.8097     0.995     18.90559     0.478      4.173     77.69909  22.7667        110
 5.73   0.2058    194.2279    266.1493  -2.74     410.1782     1.598     18.90559     1.112      4.808     77.71667  21.5176        111
 3.50   0.0008    258.9285    995.8074 -39.84     102889.8     2.157     18.90559     2.062      3.182     77.72546  15.5191        112
 5.33   0.0697    207.8602    348.2912  42.92     1209.947     2.172     18.90559     1.551      5.362     77.64633  20.3431        113
 3.50   0.0478    205.7459    547.4401  30.29     1765.503     1.440     18.90559     1.435      3.081     77.68151  19.9328        114
 7.23   0.2888    193.8830   1158.3497  19.93     292.0088     0.901     18.90559     0.693      3.218     77.65513  21.8865        115
 4.67   0.2564    202.5069    249.0628 -82.07     328.9188     1.245     18.90559     1.125      2.294     77.65513  21.7573        116
 6.30   0.4262    195.0164    447.8040  -1.57     197.9144     0.905     18.90559     0.757      4.395     77.66393  22.3088        117
 3.50   0.0531    211.3949   1304.6354 -22.74     1588.592     1.484     18.90559     1.447      2.745     77.69909  20.0475        118
 3.50   0.0010    264.9597     65.7597 -32.49     86984.73     2.095     18.90559     2.035      3.081     77.72546  15.7014        119
 4.14   0.1562    209.9293    683.1187 -66.62     539.7115     1.588     18.90559     1.287      3.325     77.63754  21.2196        120
 5.97   0.3447    205.0531    940.3129  79.60      244.629     0.730     18.90559     0.683      2.488     77.63754  22.0787        121
 6.18   0.5497    204.7234    935.2993 -17.45     153.3302     1.044     18.90559     0.660      2.454     77.61115  22.5859        122
 5.76   0.5809    204.9661    182.0299 -44.92     145.2662     0.793     18.90559     0.788      3.748     77.69909  22.6446        123
 6.06   0.0838    221.6865    344.0318  25.49     1006.773     2.076     18.90559     1.969      8.929      77.6903  20.5427        124
 3.64   1.2015    208.3053   1224.1161  17.48     70.13719     1.017     18.90559     0.915      2.988     77.59354  23.4351        125
 3.50   0.0369    223.2675   1224.5825 -89.29     2289.719     1.447     18.90559     1.430      3.261     77.71667  19.6505        126
 6.36   0.5381    216.6158    881.3004 -56.94     156.7354     1.809     18.90559     0.740      6.310     77.66393  22.5621        127
 6.23   0.2275    216.7369    739.7720 -48.77     370.9138     1.484     18.90559     1.052      4.939     77.69909  21.6268        128
 3.50   0.0002    311.2113    437.7717 -43.93     356033.1     2.528     18.90559     2.337      3.176     77.70788  14.1713        129
 3.50   0.1498    221.6353    773.3149 -28.64     563.1033     1.304     18.90559     1.232      2.544      77.6903  21.1735        130
 7.25   1.1408    213.9205    791.8632 -44.17     73.90585     0.851     18.90559     0.667      2.896     77.63754  23.3783        131
 8.64   0.1526    220.8395    373.6221  32.45     553.0876     1.683     18.90559     0.981      8.781     77.70788  21.1930        132
 7.72   0.2384    226.6158    323.3230 -86.04     354.0703     1.792     18.90559     0.855      9.738     77.71667  21.6773        133
 4.09   0.0560    243.0104    111.1028 -84.61     1505.757     2.358     18.90559     1.744      5.075     77.65513  20.1056        134
 4.02   0.0241    254.5417    611.2194 -43.66     3496.178     2.738     18.90559     2.260      5.738     77.71667  19.1910        135
 7.73  99.0000    220.6618   1401.3055  46.61    -25.30752     0.567     18.90559     0.338      1.929     77.64633  99.0000        136
 6.32   0.1994    229.1916    546.3879 -64.50     422.8933     1.265     18.90559     1.034      5.987     77.65513  21.4844        137
 4.00   0.1668    238.3424    837.3022  -9.76      505.439     1.711     18.90559     1.461      4.130     77.62874  21.2908        138
