#   1 KRON_RADIUS            Kron apertures in units of A or B                         
#   2 MAGERR_APER            RMS error vector for fixed aperture mag.                   [mag]
#   3 Y_IMAGE                Object position along y                                    [pixel]
#   4 X_IMAGE                Object position along x                                    [pixel]
#   5 FLUX_APER              Flux vector within fixed circular aperture(s)              [count]
#   6 THRESHOLD              Detection threshold above background                       [count]
#   7 THETA_IMAGE            Position angle (CCW/x)                                     [deg]
#   8 A_IMAGE                Profile RMS along major axis                               [pixel]
#   9 B_IMAGE                Profile RMS along minor axis                               [pixel]
#  10 FLUX_RADIUS            Fraction-of-light radii                                    [pixel]
#  11 FLUXERR_APER           RMS error vector for aperture flux(es)                     [count]
#  12 MAG_APER               Fixed aperture magnitude vector                            [mag]
#  13 NUMBER                 Running object number                                     
 4.23   0.0000     53.2652     63.6543     82110.84      43.5214   3.17     5.181     4.630      1.931   0.01778181  15.7640          1
 3.95   0.0000     16.5149    985.0804     13074.48      43.5214 -88.61     4.203     1.941      1.564   0.01777577  17.7589          2
 4.06   0.0000     18.0504     91.3141     12384.43      43.5214   0.42     1.768     1.716      0.550    0.0177798  17.8178          3
 3.50   0.0000     14.6167   1445.7477     32477.54      43.5214 -47.82     1.890     1.819      0.652   0.01779389  16.7710          4
 8.12   0.0000     10.2946   1183.6542     483.3098      43.5214  42.42     0.565     0.339      0.643   0.01777577  21.3394          5
 7.36   0.0000      4.2259    145.0241     413.9983      43.5214  89.83     0.957     0.768      1.463   0.01593647  21.5075          6
 6.64   0.0000     17.2495    384.5071      1106.76      43.5214  19.99     0.993     0.952      0.677   0.01777376  20.4399          7
 5.14   0.0000     24.7971    367.2085     2359.479      43.5214  13.81     1.305     1.234      0.462   0.01778181  19.6180          8
 3.50   0.0000     59.7850   1078.4766     117252.4      43.5214  77.02     2.287     2.159      0.832   0.01779993  15.3772          9
 8.57   0.0000     23.7800    383.3999     699.2462      43.5214 -71.85     0.755     0.452      0.801   0.01778785  20.9384         10
 6.41   0.0000     33.9023   1110.1802     1089.404      43.5214  68.24     1.657     0.778      1.563    0.0177798  20.4570         11
 7.88   0.0000     33.3076    326.9492     693.9896      43.5214  -6.92     0.747     0.677      1.064   0.01777779  20.9466         12
 5.98   0.0000     37.8655   1521.1591     665.1979      43.5214  46.72     0.834     0.669      0.452   0.01778785  20.9926         13
 7.05   0.0000     38.8750   1170.6508     581.5024      43.5214 -19.52     0.923     0.691      0.611   0.01777577  21.1386         14
 5.87   0.0000     42.4605    915.4996     694.5355      43.5214 -77.10     0.913     0.907      0.730   0.01777376  20.9458         15
 3.50   0.0000     80.1536    537.6561       104830      43.5214 -59.56     2.145     2.122      0.832   0.01778584  15.4988         16
 9.02   0.0000     44.6655    440.6699     624.1839      43.5214 -45.19     0.576     0.334      1.128   0.01777779  21.0617         17
 4.26   0.0000     75.2162    128.0142     5139.576      43.5214  -5.75     1.516     1.469      0.505   0.01778785  18.7727         18
 6.64   0.0000     82.2787    421.5101     929.5187      43.5214 -15.66     0.994     0.986      0.869   0.01777376  20.6294         19
 3.50   0.0000    121.8120    789.2006     156048.8      43.5214 -62.81     2.230     2.179      0.821   0.01778785  15.0668         20
 6.02   0.0000     90.7295    376.9918     1957.307      43.5214   4.47     1.628     1.442      1.818    0.0177959  19.8209         21
 4.42   0.0000     96.6151     56.2576     7542.613      43.5214 -38.95     1.639     1.566      0.589   0.01778986  18.3562         22
 6.10   0.0000     98.0585    452.9797     1382.486      43.5214 -14.82     1.454     1.005      1.016   0.01779389  20.1983         23
 7.39   0.0000     91.4945    495.9650     687.6674      43.5214  -1.40     0.788     0.500      0.549   0.01777577  20.9566         24
 3.50   0.0000    162.2989   1468.3301     96722.23      43.5214 -48.48     2.111     2.074      0.772   0.01777779  15.5862         25
 6.85   0.0000    131.2865    418.0175     442.0229      43.5214   5.64     0.729     0.681      0.519   0.01778584  21.4364         26
 3.55   0.0000    170.2996    877.3505      29160.8      43.5214  -8.96     1.882     1.865      0.718   0.01776369  16.8880         27
 8.52   0.0000    151.4999   1280.4825     581.7601      43.5214 -47.88     0.501     0.498      0.713    0.0177657  21.1381         28
 5.51   0.0000    164.9741   1445.6677     2004.831      43.5214  17.35     1.303     1.186      0.503   0.01778986  19.7948         29
 4.82   0.0000    166.8505    104.4303     1723.273      43.5214 -46.35     1.196     1.124      0.585   0.01779389  19.9591         30
 6.42   0.0000    169.3397   1368.8977     509.5975      43.5214  68.06     0.910     0.689      0.612   0.01777376  21.2819         31
 7.68   0.0000    180.3316    574.9897     1057.786      43.5214  53.18     1.039     0.643      1.122   0.01779791  20.4890         32
 7.49   0.0000    186.6387   1354.8976     848.2344      43.5214  75.59     1.045     0.753      0.760   0.01777175  20.7287         33
 5.30   0.0000    192.6023   1350.5554     2676.567      43.5214 -19.15     1.368     1.305      0.684   0.01779791  19.4811         34
 4.77   0.0000    210.7202    827.6749     8939.339      43.5214  -5.78     3.810     2.091      1.401    0.0177798  18.1717         35
 4.14   0.0000    206.7225    549.0807     5316.898      43.5214   3.37     1.545     1.484      0.461   0.01778181  18.7359         36
 4.19   0.0000    212.1664   1306.1005     5007.631      43.5214 -64.54     1.516     1.487      0.434   0.01776771  18.8009         37
 5.52   0.0000    230.1494    562.2775     8193.616      43.5214 -37.31     3.231     3.004      3.601   0.01777577  18.2663         38
 5.76   0.0000    210.8939    684.8484     1253.995      43.5214 -66.39     1.218     1.115      0.797   0.01777376  20.3043         39
 3.50   0.0000    259.7588    997.4791     253407.3      43.5214 -48.81     2.331     2.263      0.881   0.01778383  14.5405         40
 3.92   0.0000    223.9121   1226.0618     6102.049      43.5214  25.89     1.523     1.479      0.395   0.01777779  18.5863         41
 4.86   0.0000    222.6267    774.9695      1961.76      43.5214  81.57     1.224     1.191      0.544   0.01778986  19.8184         42
 3.50   0.0000    265.9002     67.6173     191538.3      43.5214 -49.31     2.268     2.237      0.847    0.0177798  14.8444         43
 5.52   0.0000    243.9732    112.8913     3271.018      43.5214 -88.19     1.951     1.539      1.016   0.01778181  19.2633         44
 4.81   0.0000    255.4885    613.0098     8488.376      43.5214 -41.01     2.436     2.028      0.959   0.01778785  18.2279         45
 6.52   0.0000    239.3535    838.8231     1060.741      43.5214  -5.84     1.203     1.102      0.849   0.01779188  20.4860         46
 7.18   0.0000    250.5180    107.4840     978.0786      43.5214 -42.78     1.108     0.852      0.739   0.01777577  20.5741         47
 3.50   0.0000    287.5196   1486.4733     57776.84      43.5214 -43.97     2.033     1.992      0.755   0.01777779  16.1456         48
 3.66   0.0000    281.9236   1522.4003      14144.6      43.5214   3.77     1.701     1.668      0.544   0.01778986  17.6735         49
 6.46   0.0000    270.7727   1273.6278     975.2442      43.5214  16.49     1.000     0.849      0.644   0.01779188  20.5772         50
 3.50   0.0000    303.1506    201.7659     46029.24      43.5214 -78.11     1.968     1.942      0.677   0.01778986  16.3924         51
 6.27   0.0000    293.2967   1475.8354     1899.445      43.5214 -33.66     1.250     1.086      0.703   0.01776973  19.8534         52
 4.64   0.0000    302.2875    563.6751     2481.785      43.5214  31.81     1.325     1.283      0.641   0.01777376  19.5631         53
 3.50   0.0000    322.0853    697.3419     33315.57      43.5214   1.78     1.882     1.848      0.634    0.0177798  16.7434         54
 7.64   0.0000    308.7069     85.2985     834.6333      43.5214  45.78     0.969     0.767      1.121   0.01777175  20.7463         55
 6.05   0.0000    321.9905    641.4783     1940.839      43.5214 -64.00     1.799     1.232      1.641   0.01779188  19.8300         56
 5.16   0.0000    327.5369    595.4523      4336.02      43.5214 -52.10     1.728     1.694      0.788   0.01778181  18.9573         57
 6.07   0.0000    329.2517   1546.0168     1018.904      43.5214 -87.78     0.913     0.756      0.493   0.01779389  20.5297         58
 5.83   0.0000    332.2679     93.4347     1251.054      43.5214  20.40     0.992     0.948      0.679   0.01778986  20.3068         59
 4.78   0.0000    350.1319     54.7084     2822.905      43.5214  -8.51     1.366     1.298      0.534   0.01777577  19.4233         60
 3.50   0.0000    368.1670    761.1217     33470.93      43.5214 -26.12     1.940     1.871      0.589   0.01778584  16.7383         61
 4.02   0.0000    361.1491   1500.4037     5649.615      43.5214 -15.08     1.586     1.464      0.624   0.01779993  18.6700         62
 3.50   0.0000    395.2009    231.4691     116867.1      43.5214 -63.05     2.184     2.143      0.836    0.0177959  15.3808         63
 5.78   0.0000    360.5269   1034.0070     1337.513      43.5214  -1.40     1.111     0.957      0.513    0.0177959  20.2343         64
 6.91   0.0000    375.4792    754.0627      1099.18      43.5214  56.22     1.715     0.961      1.417   0.01777577  20.4473         65
 7.68   0.0000    370.3091     71.9499     647.7859      43.5214 -10.89     0.743     0.672      0.658   0.01778181  21.0214         66
 6.47   0.0000    373.4826   1083.8826     1015.939      43.5214 -17.84     1.100     0.990      0.986   0.01777577  20.5328         67
 6.41   0.0001    380.6161      1.4882     180.9651      43.5214 -89.79     1.601     0.500      2.787   0.01359162  22.4060         68
 3.50   0.0000    397.0519   1461.2017     23315.33      43.5214 -44.85     1.804     1.797      0.486   0.01779993  17.1309         69
 3.50   0.0000    398.1799    354.6261     26414.73      43.5214 -13.53     1.890     1.844      0.657   0.01778785  16.9954         70
 8.09   0.0000    375.6552     87.2937     607.3694      43.5214  47.61     0.564     0.339      0.674   0.01777779  21.0914         71
 6.71   0.0000    380.1594    125.8447     854.2806      43.5214  44.65     0.818     0.680      0.600   0.01779188  20.7210         72
 4.22   0.0000    393.8183   1088.7736      5467.05      43.5214 -35.06     1.516     1.449      0.532   0.01778986  18.7056         73
 8.89   0.0000    382.4900     67.5055     699.0818      43.5214 -44.69     0.503     0.497      0.768   0.01776973  20.9387         74
 8.07   0.0000    388.6902   1195.3347     534.3475      43.5214  43.77     0.567     0.338      0.675   0.01778181  21.2304         75
 6.14   0.0000    412.0432      1.7727     413.1209      43.5214  90.00     2.505     0.701      3.850   0.01387576  21.5098         76
 7.90   0.0000    396.8768    626.5975     1723.674      43.5214 -73.71     1.239     0.985      1.452   0.01778986  19.9589         77
 8.16   0.0000    403.6928    526.4366     743.2466      43.5214  81.17     1.023     0.476      1.170   0.01777779  20.8722         78
 7.54   0.0000    407.0518    282.4902     649.4223      43.5214 -88.59     0.787     0.500      0.601   0.01778181  21.0187         79
 3.50   0.0000    437.9478    252.1072     50664.51      43.5214 -87.21     2.006     1.974      0.599   0.01777779  16.2882         80
 3.50   0.0000    461.0704    807.6703     289927.7      43.5214 -68.51     2.341     2.304      0.888   0.01776771  14.3943         81
 5.83   0.0000    420.9021    159.0900     2037.509      43.5214  37.62     1.694     1.421      1.145   0.01776973  19.7773         82
 7.67   0.0000    419.5386   1580.4929     620.8237      43.5214  40.47     0.504     0.495      0.717   0.01777779  21.0676         83
 4.17   0.0000    432.9492   1422.0629     3580.603      43.5214   6.85     1.427     1.396      0.380   0.01778181  19.1651         84
 6.72   0.0000    426.5748   1179.2787     1258.153      43.5214  26.35     1.188     0.957      0.981   0.01778785  20.3007         85
 6.42   0.0000    426.8329    433.0970     76112.42      43.5214  -3.27     2.183     0.735      3.822   0.01777376  15.8464         86
 5.15   0.0000    434.2586    151.1154     1677.537      43.5214 -20.05     1.138     1.034      0.489    0.0177798  19.9883         87
 3.88   0.0000    450.3392     21.3603     16637.56      43.5214 -27.47     1.777     1.769      0.676   0.01778986  17.4973         88
 5.07   0.0000    467.7993    850.4810     10551.73      43.5214  22.59     7.403     2.054      4.343   0.01778986  17.9917         89
 9.05   0.0000    430.6650    719.3185     1009.162      43.5214  45.76     0.572     0.336      1.996   0.01777376  20.5401         90
 4.48   0.0000    440.0043    305.8401     1804.863      43.5214  22.45     1.160     1.136      0.419   0.01778986  19.9089         91
 5.42   0.0000    445.2589    122.3780     1972.147      43.5214 -23.52     1.401     1.309      0.768   0.01779389  19.8127         92
 3.80   0.0000    457.8408     34.5939     18777.51      43.5214 -30.83     1.779     1.767      0.577   0.01779188  17.3659         93
 8.05   0.0000    443.6886    655.3237     533.9614      43.5214  44.36     0.563     0.340      0.586   0.01777175  21.2312         94
 4.32   0.0000    463.6414    468.6490     5479.159      43.5214  70.99     1.619     1.558      0.620   0.01779389  18.7032         95
 6.24   0.0000    452.9206   1533.0249     941.6439      43.5214 -31.03     0.792     0.774      0.420   0.01778785  20.6153         96
 5.22   0.0000    460.9918   1096.1410     1673.999      43.5214  47.71     1.191     1.080      0.572   0.01779993  19.9906         97
 4.60   0.0000    471.3581    254.2742     4742.325      43.5214 -79.51     1.510     1.439      0.659   0.01778383  18.8600         98
 4.03   0.0000    472.1380    734.9207      6934.91      43.5214  75.27     1.566     1.511      0.414   0.01777577  18.4474         99
 7.71   0.0000    461.8358    724.7247     951.1758      43.5214 -20.12     0.949     0.683      0.949   0.01778383  20.6043        100
 3.70   0.0000    477.9271    923.0840     8823.133      43.5214 -28.67     1.679     1.612      0.412   0.01777577  18.1859        101
 4.34   0.0000    477.2791   1276.4363     3040.926      43.5214 -44.53     1.334     0.920      0.951   0.01778383  19.3425        102
 5.84   0.0000    488.9431    839.6031     1295.313      43.5214  87.10     2.059     0.959      1.670   0.01779993  20.2691        103
 4.14   0.0000    484.0388   1070.6680     3955.186      43.5214 -80.82     1.429     1.400      0.512   0.01778785  19.0571        104
 7.10   0.0000    475.9789   1168.4807     648.4432      43.5214  89.68     0.781     0.500      0.558   0.01778986  21.0203        105
 5.40   0.0000    496.2654     82.9187      5172.05      43.5214  66.13     2.311     2.046      1.957   0.01777376  18.7658        106
 6.87   0.0000    478.8629    682.8434     733.2713      43.5214 -46.10     0.819     0.679      0.561   0.01778383  20.8868        107
 5.12   0.0000    495.7248   1186.8407      5208.32      43.5214 -15.71     2.996     1.931      2.246   0.01778383  18.7583        108
 5.26   0.0000    504.0796    762.8668     2957.239      43.5214 -10.71     1.688     1.646      1.210   0.01777376  19.3728        109
 4.77   0.0000    502.0138    863.8067     1984.036      43.5214  64.62     1.201     1.192      0.398   0.01777779  19.8061        110
 4.57   0.0000    515.3623   1461.0657     6909.838      43.5214  23.93     4.115     1.649      2.032   0.01778986  18.4513        111
 6.08   0.0000    498.0054    366.2516     883.1098      43.5214   0.37     0.926     0.749      0.543   0.01779993  20.6850        112
 6.08   0.0000    509.9191    164.8152      2015.55      43.5214  -5.95     1.820     1.073      1.339   0.01779188  19.7890        113
 4.83   0.0000    513.8598   1179.1876     2215.324      43.5214  24.06     1.285     1.178      0.488   0.01779188  19.6864        114
 5.52   0.0000    519.1540    641.9484     1522.871      43.5214  22.36     1.200     1.120      0.659    0.0177959  20.0933        115
 6.45   0.0000    518.1915   1519.1722     761.8182      43.5214  45.74     0.761     0.567      0.580   0.01778986  20.8454        116
 4.09   0.0000    540.2067    999.9378     5629.169      43.5214  61.15     1.534     1.490      0.454   0.01779791  18.6739        117
 6.53   0.0000    536.3547    404.5305     931.8708      43.5214  38.93     1.195     0.786      1.002   0.01778181  20.6266        118
 3.90   0.0000    558.9035   1041.7982     7461.265      43.5214   6.20     1.633     1.563      0.450   0.01778584  18.3680        119
 4.74   0.0000    571.3472     45.9143     4584.287      43.5214  46.17     2.084     1.522      1.009   0.01777779  18.8968        120
 5.98   0.0000    555.8228    778.8107     638.4673      43.5214  44.57     0.756     0.567      0.476   0.01778584  21.0372        121
 3.50   0.0000    580.7163    144.9663     33092.55      43.5214  83.47     1.885     1.868      0.550   0.01778785  16.7507        122
 4.85   0.0000    571.3085   1447.7944     3983.979      43.5214  19.43     2.258     1.637      1.663    0.0177798  19.0492        123
 5.88   0.0000    565.0881    139.5546      1310.25      43.5214 -69.74     1.052     0.977      0.582    0.0177798  20.2566        124
 3.50   0.0000    582.1971    319.2584     32337.21      43.5214   7.31     1.887     1.830      0.622   0.01779993  16.7757        125
 4.29   0.0000    596.7602    782.6867     12614.81      43.5214 -62.08     3.302     3.182      2.437   0.01778584  17.7978        126
 5.97   0.0000    576.2225   1001.8235      1276.38      43.5214  40.80     1.216     1.076      0.782   0.01778986  20.2850        127
 4.64   0.0000    584.5398     76.0209     1823.396      43.5214  -0.84     1.205     1.138      0.545   0.01779389  19.8978        128
 4.19   0.0000   1001.5298   1555.4829     3743.655      43.5214  54.97     1.346     1.330      0.696   0.01777376  19.1168        129
 4.71   0.0000   1597.6036    654.7847     1096.262      43.5214   1.75     1.659     1.434      2.966   0.01529453  20.4502        130
 5.16   0.0000   1594.7568    374.1190      1441.01      43.5214  42.74     1.307     1.027      0.911   0.01718595  20.1533        131
 4.05   0.0000   1584.9181   1108.9316     6126.923      43.5214 -15.59     1.433     1.357      0.396   0.01777779  18.5819        132
 6.78   0.0000   1585.9497   1069.5099     1634.242      43.5214 -88.96     0.783     0.500      0.558    0.0177798  20.0167        133
 3.60   0.0000   1541.8564    135.1745     12748.93      43.5214  54.68     1.663     1.623      0.445   0.01779188  17.7863        134
 8.74   0.0000   1519.3268     85.3294     1356.657      43.5214 -44.88     0.573     0.336      0.839   0.01777175  20.2188        135
 4.79   0.0000   1514.6519    483.6263     2703.595      43.5214 -43.74     1.049     0.951      0.634   0.01779389  19.4701        136
 4.90   0.0000    912.4185   1001.2366     1770.691      43.5214  73.44     0.989     0.957      0.610   0.01779188  19.9296        137
 3.50   0.0000    900.4997    302.8331     20969.71      43.5214 -64.19     1.794     1.787      0.641   0.01776973  17.2460        138
