#   1 KRON_RADIUS            Kron apertures in units of A or B                         
#   2 MAGERR_APER            RMS error vector for fixed aperture mag.                   [mag]
#   3 Y_IMAGE                Object position along y                                    [pixel]
#   4 X_IMAGE                Object position along x                                    [pixel]
#   5 FLUX_APER              Flux vector within fixed circular aperture(s)              [count]
#   6 THRESHOLD              Detection threshold above background                       [count]
#   7 THETA_IMAGE            Position angle (CCW/x)                                     [deg]
#   8 A_IMAGE                Profile RMS along major axis                               [pixel]
#   9 B_IMAGE                Profile RMS along minor axis                               [pixel]
#  10 FLUX_RADIUS            Fraction-of-light radii                                    [pixel]
#  11 FLUXERR_APER           RMS error vector for aperture flux(es)                     [count]
#  12 MAG_APER               Fixed aperture magnitude vector                            [mag]
#  13 NUMBER                 Running object number                                     
 4.23   0.0000     53.2652     63.6543     95606.92      43.5214   3.17     5.181     4.630      3.409   0.01689667  15.5988          1
 3.95   0.0000     16.5149    985.0804     15046.85      43.5214 -88.61     4.203     1.941      2.934   0.01689093  17.6064          2
 4.06   0.0000     18.0504     91.3141     12664.75      43.5214   0.42     1.768     1.716      1.995   0.01689475  17.7935          3
 3.50   0.0000     14.6167   1445.7477     28713.93      43.5214 -47.82     1.890     1.819      2.073   0.01690814  16.9048          4
 8.12   0.0000     10.2946   1183.6542      562.152      43.5214  42.42     0.565     0.339      2.126   0.01689093  21.1754          5
 7.36   0.0000      4.2259    145.0241     708.2824      43.5214  89.83     0.957     0.768      2.643   0.01514318  20.9245          6
 6.64   0.0000     17.2495    384.5071     1275.042      43.5214  19.99     0.993     0.952      1.997   0.01688901  20.2862          7
 5.14   0.0000     24.7971    367.2085     2673.996      43.5214  13.81     1.305     1.234      2.028   0.01689667  19.4821          8
 3.50   0.0000     59.7850   1078.4766     113008.4      43.5214  77.02     2.287     2.159      2.130   0.01691388  15.4172          9
 8.57   0.0000     23.7800    383.3999     1411.983      43.5214 -71.85     0.755     0.452      2.157    0.0169024  20.1754         10
 6.41   0.0000     33.9023   1110.1802     1374.889      43.5214  68.24     1.657     0.778      2.248   0.01689475  20.2043         11
 7.88   0.0000     33.3076    326.9492     935.8609      43.5214  -6.92     0.747     0.677      2.221   0.01689284  20.6220         12
 5.98   0.0000     37.8655   1521.1591     865.9158      43.5214  46.72     0.834     0.669      2.147    0.0169024  20.7063         13
 7.05   0.0000     38.8750   1170.6508     867.8035      43.5214 -19.52     0.923     0.691      2.118   0.01689093  20.7039         14
 5.87   0.0000     42.4605    915.4996     1149.673      43.5214 -77.10     0.913     0.907      2.005   0.01688901  20.3986         15
 3.50   0.0000     80.1536    537.6561     105462.4      43.5214 -59.56     2.145     2.122      2.027   0.01690049  15.4923         16
 9.02   0.0000     44.6655    440.6699     1067.136      43.5214 -45.19     0.576     0.334      1.846   0.01689284  20.4795         17
 4.26   0.0000     75.2162    128.0142     5338.175      43.5214  -5.75     1.516     1.469      2.149    0.0169024  18.7315         18
 6.64   0.0000     82.2787    421.5101     1176.707      43.5214 -15.66     0.994     0.986      2.223   0.01688901  20.3733         19
 3.50   0.0000    121.8120    789.2006     163016.3      43.5214 -62.81     2.230     2.179      2.062    0.0169024  15.0194         20
 6.02   0.0000     90.7295    376.9918     2940.541      43.5214   4.47     1.628     1.442      2.633   0.01691005  19.3789         21
 4.42   0.0000     96.6151     56.2576     7879.533      43.5214 -38.95     1.639     1.566      2.012   0.01690432  18.3087         22
 6.10   0.0000     98.0585    452.9797     1872.136      43.5214 -14.82     1.454     1.005      2.151   0.01690814  19.8692         23
 7.39   0.0000     91.4945    495.9650     938.0714      43.5214  -1.40     0.788     0.500      2.124   0.01689093  20.6194         24
 3.50   0.0000    162.2989   1468.3301     87038.56      43.5214 -48.48     2.111     2.074      2.073   0.01689284  15.7007         25
 6.85   0.0000    131.2865    418.0175     825.1475      43.5214   5.64     0.729     0.681      2.200   0.01690049  20.7587         26
 3.55   0.0000    170.2996    877.3505     23275.09      43.5214  -8.96     1.882     1.865      2.035   0.01687944  17.1328         27
 8.52   0.0000    151.4999   1280.4825     619.2025      43.5214 -47.88     0.501     0.498      1.887   0.01688135  21.0704         28
 5.51   0.0000    164.9741   1445.6677     2269.844      43.5214  17.35     1.303     1.186      2.109   0.01690432  19.6600         29
 4.82   0.0000    166.8505    104.4303     1734.895      43.5214 -46.35     1.196     1.124      1.968   0.01690814  19.9518         30
 6.42   0.0000    169.3397   1368.8977     880.4132      43.5214  68.06     0.910     0.689      2.108   0.01688901  20.6883         31
 7.68   0.0000    180.3316    574.9897     1128.405      43.5214  53.18     1.039     0.643      2.100   0.01691196  20.4188         32
 7.49   0.0000    186.6387   1354.8976     1203.889      43.5214  75.59     1.045     0.753      2.346    0.0168871  20.3485         33
 5.30   0.0000    192.6023   1350.5554      2868.32      43.5214 -19.15     1.368     1.305      2.036   0.01691196  19.4059         34
 4.77   0.0000    210.7202    827.6749      11258.9      43.5214  -5.78     3.810     2.091      2.920   0.01689475  17.9213         35
 4.14   0.0000    206.7225    549.0807      5491.59      43.5214   3.37     1.545     1.484      2.072   0.01689667  18.7008         36
 4.19   0.0000    212.1664   1306.1005      5538.44      43.5214 -64.54     1.516     1.487      2.115   0.01688327  18.6915         37
 5.52   0.0000    230.1494    562.2775     10372.87      43.5214 -37.31     3.231     3.004      4.234   0.01689093  18.0103         38
 5.76   0.0000    210.8939    684.8484     1657.689      43.5214 -66.39     1.218     1.115      2.147   0.01688901  20.0012         39
 3.50   0.0000    259.7588    997.4791     286979.1      43.5214 -48.81     2.331     2.263      2.081   0.01689858  14.4054         40
 3.92   0.0000    223.9121   1226.0618     6451.246      43.5214  25.89     1.523     1.479      2.085   0.01689284  18.5259         41
 4.86   0.0000    222.6267    774.9695     2318.768      43.5214  81.57     1.224     1.191      2.024   0.01690432  19.6369         42
 3.50   0.0000    265.9002     67.6173     209856.8      43.5214 -49.31     2.268     2.237      2.053   0.01689475  14.7452         43
 5.52   0.0000    243.9732    112.8913     3890.724      43.5214 -88.19     1.951     1.539      2.630   0.01689667  19.0749         44
 4.81   0.0000    255.4885    613.0098     10456.35      43.5214 -41.01     2.436     2.028      2.403    0.0169024  18.0015         45
 6.52   0.0000    239.3535    838.8231     1727.755      43.5214  -5.84     1.203     1.102      2.213   0.01690623  19.9563         46
 7.18   0.0000    250.5180    107.4840     1404.032      43.5214 -42.78     1.108     0.852      2.156   0.01689092  20.1816         47
 3.50   0.0000    287.5196   1486.4733     50300.53      43.5214 -43.97     2.033     1.992      2.092   0.01689284  16.2961         48
 3.66   0.0000    281.9236   1522.4003     13736.51      43.5214   3.77     1.701     1.668      1.990   0.01690432  17.7053         49
 6.46   0.0000    270.7727   1273.6278     1158.973      43.5214  16.49     1.000     0.849      1.963   0.01690623  20.3898         50
 3.50   0.0000    303.1506    201.7659     38429.28      43.5214 -78.11     1.968     1.942      2.074   0.01690432  16.5883         51
 6.27   0.0000    293.2967   1475.8354      1515.46      43.5214 -33.66     1.250     1.086      1.988   0.01688518  20.0986         52
 4.64   0.0000    302.2875    563.6751     2291.712      43.5214  31.81     1.325     1.283      2.072   0.01688901  19.6496         53
 3.50   0.0000    322.0853    697.3419     27365.13      43.5214   1.78     1.882     1.848      1.976   0.01689475  16.9570         54
 7.64   0.0000    308.7069     85.2985     1128.807      43.5214  45.78     0.969     0.767      2.251    0.0168871  20.4184         55
 6.05   0.0000    321.9905    641.4783     2791.106      43.5214 -64.00     1.799     1.232      2.810   0.01690623  19.4356         56
 5.16   0.0000    327.5369    595.4523      5423.04      43.5214 -52.10     1.728     1.694      2.199   0.01689667  18.7144         57
 6.07   0.0000    329.2517   1546.0168     1065.858      43.5214 -87.78     0.913     0.756      2.190   0.01690814  20.4808         58
 5.83   0.0000    332.2679     93.4347     1541.783      43.5214  20.40     0.992     0.948      1.975   0.01690432  20.0799         59
 4.78   0.0000    350.1319     54.7084     2992.536      43.5214  -8.51     1.366     1.298      1.955   0.01689093  19.3599         60
 3.50   0.0000    368.1670    761.1217     26350.82      43.5214 -26.12     1.940     1.871      2.046   0.01690049  16.9980         61
 4.02   0.0000    361.1491   1500.4037     5659.236      43.5214 -15.08     1.586     1.464      2.093   0.01691388  18.6681         62
 3.50   0.0000    395.2009    231.4691     115311.9      43.5214 -63.05     2.184     2.143      2.050   0.01691005  15.3953         63
 5.78   0.0000    360.5269   1034.0070     1685.843      43.5214  -1.40     1.111     0.957      2.121   0.01691005  19.9830         64
 6.91   0.0000    375.4792    754.0627      1619.95      43.5214  56.22     1.715     0.961      1.963   0.01689093  20.0262         65
 7.68   0.0000    370.3091     71.9499     1089.142      43.5214 -10.89     0.743     0.672      2.106   0.01689667  20.4573         66
 6.47   0.0000    373.4826   1083.8826     1306.124      43.5214 -17.84     1.100     0.990      2.297   0.01689093  20.2600         67
 6.41   0.0002    380.6161      1.4882     88.61497      43.5214 -89.79     1.601     0.500      2.930   0.01291506  23.1812         68
 3.50   0.0000    397.0519   1461.2017     20043.67      43.5214 -44.85     1.804     1.797      2.073   0.01691388  17.2951         69
 3.50   0.0000    398.1799    354.6261     21894.06      43.5214 -13.53     1.890     1.844      2.010    0.0169024  17.1992         70
 8.09   0.0000    375.6552     87.2937     847.3633      43.5214  47.61     0.564     0.339      1.951   0.01689284  20.7298         71
 6.71   0.0000    380.1594    125.8447       994.97      43.5214  44.65     0.818     0.680      1.938   0.01690623  20.5555         72
 4.22   0.0000    393.8183   1088.7736     5067.836      43.5214 -35.06     1.516     1.449      1.916   0.01690432  18.7879         73
 8.89   0.0000    382.4900     67.5055     725.7673      43.5214 -44.69     0.503     0.497      1.854   0.01688518  20.8980         74
 8.07   0.0000    388.6902   1195.3347     508.4843      43.5214  43.77     0.567     0.338      2.275   0.01689667  21.2843         75
 6.14   0.0001    412.0432      1.7727     176.7109      43.5214  90.00     2.505     0.701      4.367   0.01318505  22.4318         76
 7.90   0.0000    396.8768    626.5975     2018.861      43.5214 -73.71     1.239     0.985      2.741   0.01690432  19.7872         77
 8.16   0.0000    403.6928    526.4366     1116.011      43.5214  81.17     1.023     0.476      2.237   0.01689284  20.4308         78
 7.54   0.0000    407.0518    282.4902     714.6863      43.5214 -88.59     0.787     0.500      2.004   0.01689667  20.9147         79
 3.50   0.0000    437.9478    252.1072     41783.29      43.5214 -87.21     2.006     1.974      2.102   0.01689284  16.4975         80
 3.50   0.0000    461.0704    807.6703     287888.5      43.5214 -68.51     2.341     2.304      2.045   0.01688327  14.4019         81
 5.83   0.0000    420.9021    159.0900      2698.23      43.5214  37.62     1.694     1.421      2.122   0.01688518  19.4723         82
 7.67   0.0000    419.5386   1580.4929     744.5362      43.5214  40.47     0.504     0.495      2.104   0.01689284  20.8703         83
 4.17   0.0000    432.9492   1422.0629     3965.904      43.5214   6.85     1.427     1.396      2.026   0.01689667  19.0541         84
 6.72   0.0000    426.5748   1179.2787     1373.503      43.5214  26.35     1.188     0.957      2.041    0.0169024  20.2054         85
 6.42   0.0000    426.8329    433.0970       105181      43.5214  -3.27     2.183     0.735      4.266   0.01688901  15.4952         86
 5.15   0.0000    434.2586    151.1154     1464.449      43.5214 -20.05     1.138     1.034      1.974   0.01689475  20.1358         87
 3.88   0.0000    450.3392     21.3603     15401.76      43.5214 -27.47     1.777     1.769      2.023   0.01690432  17.5811         88
 5.07   0.0000    467.7993    850.4810      13347.6      43.5214  22.59     7.403     2.054      4.782   0.01690432  17.7365         89
 9.05   0.0000    430.6650    719.3185     1615.073      43.5214  45.76     0.572     0.336      1.840   0.01688901  20.0295         90
 4.48   0.0000    440.0043    305.8401     1814.395      43.5214  22.45     1.160     1.136      1.914   0.01690432  19.9032         91
 5.42   0.0000    445.2589    122.3780     2644.717      43.5214 -23.52     1.401     1.309      2.132   0.01690814  19.4941         92
 3.80   0.0000    457.8408     34.5939     17870.58      43.5214 -30.83     1.779     1.767      1.958   0.01690623  17.4197         93
 8.05   0.0000    443.6886    655.3237     1074.583      43.5214  44.36     0.563     0.340      2.063    0.0168871  20.4719         94
 4.32   0.0000    463.6414    468.6490     5681.776      43.5214  70.99     1.619     1.558      2.074   0.01690814  18.6638         95
 6.24   0.0000    452.9206   1533.0249     929.3177      43.5214 -31.03     0.792     0.774      2.163    0.0169024  20.6296         96
 5.22   0.0000    460.9918   1096.1410     1976.586      43.5214  47.71     1.191     1.080      2.136   0.01691388  19.8102         97
 4.60   0.0000    471.3581    254.2742     4788.929      43.5214 -79.51     1.510     1.439      2.033   0.01689858  18.8494         98
 4.03   0.0000    472.1380    734.9207     7117.183      43.5214  75.27     1.566     1.511      2.066   0.01689093  18.4192         99
 7.71   0.0000    461.8358    724.7247     1057.724      43.5214 -20.12     0.949     0.683      2.248   0.01689858  20.4891        100
 3.70   0.0000    477.9271    923.0840     9381.043      43.5214 -28.67     1.679     1.612      2.019   0.01689093  18.1194        101
 4.34   0.0000    477.2791   1276.4363     3459.999      43.5214 -44.53     1.334     0.920      2.973   0.01689858  19.2023        102
 5.84   0.0000    488.9431    839.6031     1852.711      43.5214  87.10     2.059     0.959      2.632   0.01691388  19.8805        103
 4.14   0.0000    484.0388   1070.6680       4362.7      43.5214 -80.82     1.429     1.400      2.008    0.0169024  18.9506        104
 7.10   0.0000    475.9789   1168.4807     714.6737      43.5214  89.68     0.781     0.500      1.944   0.01690432  20.9147        105
 5.40   0.0000    496.2654     82.9187     6657.111      43.5214  66.13     2.311     2.046      2.985   0.01688901  18.4918        106
 6.87   0.0000    478.8629    682.8434     1166.677      43.5214 -46.10     0.819     0.679      1.958   0.01689858  20.3826        107
 5.12   0.0000    495.7248   1186.8407     6543.973      43.5214 -15.71     2.996     1.931      3.254   0.01689858  18.5104        108
 5.26   0.0000    504.0796    762.8668     3177.045      43.5214 -10.71     1.688     1.646      2.433   0.01688901  19.2949        109
 4.77   0.0000    502.0138    863.8067     2450.612      43.5214  64.62     1.201     1.192      2.097   0.01689284  19.5768        110
 4.57   0.0000    515.3623   1461.0657     7811.775      43.5214  23.93     4.115     1.649      3.010   0.01690432  18.3181        111
 6.08   0.0000    498.0054    366.2516     1005.538      43.5214   0.37     0.926     0.749      2.166   0.01691388  20.5440        112
 6.08   0.0000    509.9191    164.8152     2238.644      43.5214  -5.95     1.820     1.073      2.753   0.01690623  19.6750        113
 4.83   0.0000    513.8598   1179.1876     2345.406      43.5214  24.06     1.285     1.178      2.066   0.01690623  19.6245        114
 5.52   0.0000    519.1540    641.9484     1609.494      43.5214  22.36     1.200     1.120      2.110   0.01691005  20.0333        115
 6.45   0.0000    518.1915   1519.1722     874.5853      43.5214  45.74     0.761     0.567      2.193   0.01690432  20.6955        116
 4.09   0.0000    540.2067    999.9378     5572.462      43.5214  61.15     1.534     1.490      2.087   0.01691196  18.6849        117
 6.53   0.0000    536.3547    404.5305     1244.302      43.5214  38.93     1.195     0.786      1.916   0.01689667  20.3127        118
 3.90   0.0000    558.9035   1041.7982     7317.726      43.5214   6.20     1.633     1.563      1.988   0.01690049  18.3891        119
 4.74   0.0000    571.3472     45.9143     5273.781      43.5214  46.17     2.084     1.522      2.174   0.01689284  18.7447        120
 5.98   0.0000    555.8228    778.8107     716.7967      43.5214  44.57     0.756     0.567      2.080   0.01690049  20.9115        121
 3.50   0.0000    580.7163    144.9663     27632.94      43.5214  83.47     1.885     1.868      2.059    0.0169024  16.9464        122
 4.85   0.0000    571.3085   1447.7944      4571.22      43.5214  19.43     2.258     1.637      2.695   0.01689475  18.8999        123
 5.88   0.0000    565.0881    139.5546      1313.52      43.5214 -69.74     1.052     0.977      1.894   0.01689475  20.2539        124
 3.50   0.0000    582.1971    319.2584     25174.36      43.5214   7.31     1.887     1.830      2.001   0.01691388  17.0476        125
 4.29   0.0000    596.7602    782.6867     15395.22      43.5214 -62.08     3.302     3.182      3.541   0.01690049  17.5815        126
 5.97   0.0000    576.2225   1001.8235     1555.949      43.5214  40.80     1.216     1.076      2.179   0.01690432  20.0700        127
 4.64   0.0000    584.5398     76.0209     2008.871      43.5214  -0.84     1.205     1.138      2.077   0.01690814  19.7926        128
 4.19   0.0000   1001.5298   1555.4829     3837.335      43.5214  54.97     1.346     1.330      2.045   0.01688901  19.0899        129
 4.71   0.0000   1597.6036    654.7847     662.5702      43.5214   1.75     1.659     1.434      2.351   0.01453319  20.9969        130
 5.16   0.0000   1594.7568    374.1190     944.5295      43.5214  42.74     1.307     1.027      1.598   0.01633046  20.6120        131
 4.05   0.0000   1584.9181   1108.9316     4181.203      43.5214 -15.59     1.433     1.357      1.996   0.01689284  18.9967        132
 6.78   0.0000   1585.9497   1069.5099     1000.631      43.5214 -88.96     0.783     0.500      2.057   0.01689475  20.5493        133
 3.60   0.0000   1541.8564    135.1745     11193.98      43.5214  54.68     1.663     1.623      2.001   0.01690623  17.9275        134
 8.74   0.0000   1519.3268     85.3294     821.4859      43.5214 -44.88     0.573     0.336      1.726    0.0168871  20.7635        135
 4.79   0.0000   1514.6519    483.6263      1338.06      43.5214 -43.74     1.049     0.951      2.097   0.01690814  20.2338        136
 4.90   0.0000    912.4185   1001.2366     1442.424      43.5214  73.44     0.989     0.957      2.003   0.01690623  20.1523        137
 3.50   0.0000    900.4997    302.8331     18780.04      43.5214 -64.19     1.794     1.787      2.051   0.01688518  17.3658        138
