#   1 KRON_RADIUS            Kron apertures in units of A or B                         
#   2 MAGERR_APER            RMS error vector for fixed aperture mag.                   [mag]
#   3 Y_IMAGE                Object position along y                                    [pixel]
#   4 X_IMAGE                Object position along x                                    [pixel]
#   5 FLUX_APER              Flux vector within fixed circular aperture(s)              [count]
#   6 THRESHOLD              Detection threshold above background                       [count]
#   7 THETA_IMAGE            Position angle (CCW/x)                                     [deg]
#   8 A_IMAGE                Profile RMS along major axis                               [pixel]
#   9 B_IMAGE                Profile RMS along minor axis                               [pixel]
#  10 FLUX_RADIUS            Fraction-of-light radii                                    [pixel]
#  11 FLUXERR_APER           RMS error vector for aperture flux(es)                     [count]
#  12 MAG_APER               Fixed aperture magnitude vector                            [mag]
#  13 NUMBER                 Running object number                                     
 4.23   0.0000     53.2652     63.6543     61767.56      43.5214   3.17     5.181     4.630      3.482   0.01084251  16.0731          1
 3.95   0.0000     16.5149    985.0804     9679.799      43.5214 -88.61     4.203     1.941      2.937   0.01083882  18.0853          2
 4.06   0.0000     18.0504     91.3141     8080.434      43.5214   0.42     1.768     1.716      2.216   0.01084128  18.2814          3
 3.50   0.0000     14.6167   1445.7477     24426.33      43.5214 -47.82     1.890     1.819      2.223   0.01084987  17.0804          4
 8.12   0.0000     10.2946   1183.6542     349.7013      43.5214  42.42     0.565     0.339      2.267   0.01083882  21.6908          5
 7.36   0.0000      4.2259    145.0241     316.0465      43.5214  89.83     0.957     0.768      3.104  0.009717303  21.8006          6
 6.64   0.0000     17.2495    384.5071     897.6333      43.5214  19.99     0.993     0.952      2.326   0.01083759  20.6673          7
 5.14   0.0000     24.7971    367.2085     1599.424      43.5214  13.81     1.305     1.234      2.183   0.01084251  20.0401          8
 3.50   0.0000     59.7850   1078.4766     115236.8      43.5214  77.02     2.287     2.159      2.272   0.01085355  15.3960          9
 8.57   0.0000     23.7800    383.3999     1024.671      43.5214 -71.85     0.755     0.452      2.288   0.01084619  20.5235         10
 6.41   0.0000     33.9023   1110.1802     797.5779      43.5214  68.24     1.657     0.778      2.359   0.01084128  20.7956         11
 7.88   0.0000     33.3076    326.9492      576.218      43.5214  -6.92     0.747     0.677      2.422   0.01084005  21.1485         12
 5.98   0.0000     37.8655   1521.1591     507.8508      43.5214  46.72     0.834     0.669      2.252   0.01084619  21.2857         13
 7.05   0.0000     38.8750   1170.6508     418.9088      43.5214 -19.52     0.923     0.691      2.248   0.01083882  21.4947         14
 5.87   0.0000     42.4605    915.4996     508.3452      43.5214 -77.10     0.913     0.907      2.207   0.01083759  21.2846         15
 3.50   0.0000     80.1536    537.6561     101999.3      43.5214 -59.56     2.145     2.122      2.279   0.01084496  15.5285         16
 9.02   0.0000     44.6655    440.6699     496.8264      43.5214 -45.19     0.576     0.334      1.899   0.01084005  21.3095         17
 4.26   0.0000     75.2162    128.0142     3294.705      43.5214  -5.75     1.516     1.469      2.266   0.01084619  19.2555         18
 6.64   0.0000     82.2787    421.5101     665.2819      43.5214 -15.66     0.994     0.986      2.412   0.01083759  20.9925         19
 3.50   0.0000    121.8120    789.2006     153679.9      43.5214 -62.81     2.230     2.179      2.169   0.01084619  15.0835         20
 6.02   0.0000     90.7295    376.9918     1528.417      43.5214   4.47     1.628     1.442      2.785    0.0108511  20.0894         21
 4.42   0.0000     96.6151     56.2576     4905.644      43.5214 -38.95     1.639     1.566      2.179   0.01084742  18.8233         22
 6.10   0.0000     98.0585    452.9797     1018.408      43.5214 -14.82     1.454     1.005      2.328   0.01084987  20.5302         23
 7.39   0.0000     91.4945    495.9650     476.5868      43.5214  -1.40     0.788     0.500      2.246   0.01083882  21.3546         24
 3.50   0.0000    162.2989   1468.3301     89182.15      43.5214 -48.48     2.111     2.074      2.173   0.01084005  15.6743         25
 6.85   0.0000    131.2865    418.0175     331.4935      43.5214   5.64     0.729     0.681      2.266   0.01084496  21.7488         26
 3.55   0.0000    170.2996    877.3505     18753.41      43.5214  -8.96     1.882     1.865      2.199   0.01083145  17.3673         27
 8.52   0.0000    151.4999   1280.4825     413.2001      43.5214 -47.88     0.501     0.498      2.030   0.01083268  21.5096         28
 5.51   0.0000    164.9741   1445.6677      1285.24      43.5214  17.35     1.303     1.186      2.250   0.01084742  20.2775         29
 4.82   0.0000    166.8505    104.4303     1097.387      43.5214 -46.35     1.196     1.124      2.154   0.01084987  20.4491         30
 6.42   0.0000    169.3397   1368.8977     391.9182      43.5214  68.06     0.910     0.689      2.228   0.01083759  21.5670         31
 7.68   0.0000    180.3316    574.9897     823.3493      43.5214  53.18     1.039     0.643      2.565   0.01085232  20.7610         32
 7.49   0.0000    186.6387   1354.8976     655.5248      43.5214  75.59     1.045     0.753      2.459   0.01083637  21.0085         33
 5.30   0.0000    192.6023   1350.5554     1768.366      43.5214 -19.15     1.368     1.305      2.162   0.01085232  19.9311         34
 4.77   0.0000    210.7202    827.6749     6793.941      43.5214  -5.78     3.810     2.091      2.851   0.01084128  18.4697         35
 4.14   0.0000    206.7225    549.0807     3678.251      43.5214   3.37     1.545     1.484      2.199   0.01084251  19.1359         36
 4.19   0.0000    212.1664   1306.1005     3455.341      43.5214 -64.54     1.516     1.487      2.159   0.01083391  19.2038         37
 5.52   0.0000    230.1494    562.2775     5902.612      43.5214 -37.31     3.231     3.004      4.215   0.01083882  18.6224         38
 5.76   0.0000    210.8939    684.8484     934.1815      43.5214 -66.39     1.218     1.115      2.343   0.01083759  20.6239         39
 3.50   0.0000    259.7588    997.4791     272862.4      43.5214 -48.81     2.331     2.263      2.175   0.01084373  14.4601         40
 3.92   0.0000    223.9121   1226.0618     4335.749      43.5214  25.89     1.523     1.479      2.123   0.01084005  18.9573         41
 4.86   0.0000    222.6267    774.9695     1365.148      43.5214  81.57     1.224     1.191      2.139   0.01084742  20.2120         42
 3.50   0.0000    265.9002     67.6173     195253.9      43.5214 -49.31     2.268     2.237      2.292   0.01084128  14.8235         43
 5.52   0.0000    243.9732    112.8913     2554.999      43.5214 -88.19     1.951     1.539      3.023   0.01084251  19.5315         44
 4.81   0.0000    255.4885    613.0098     6444.896      43.5214 -41.01     2.436     2.028      2.499   0.01084619  18.5270         45
 6.52   0.0000    239.3535    838.8231     834.0782      43.5214  -5.84     1.203     1.102      2.227   0.01084864  20.7470         46
 7.18   0.0000    250.5180    107.4840     929.6422      43.5214 -42.78     1.108     0.852      2.421   0.01083882  20.6292         47
 3.50   0.0000    287.5196   1486.4733     49693.89      43.5214 -43.97     2.033     1.992      2.196   0.01084005  16.3092         48
 3.66   0.0000    281.9236   1522.4003     9804.666      43.5214   3.77     1.701     1.668      2.106   0.01084742  18.0714         49
 6.46   0.0000    270.7727   1273.6278     663.4128      43.5214  16.49     1.000     0.849      2.186   0.01084864  20.9955         50
 3.50   0.0000    303.1506    201.7659     33289.11      43.5214 -78.11     1.968     1.942      2.270   0.01084742  16.7442         51
 6.27   0.0000    293.2967   1475.8354     1234.009      43.5214 -33.66     1.250     1.086      2.115   0.01083514  20.3217         52
 4.64   0.0000    302.2875    563.6751     1593.611      43.5214  31.81     1.325     1.283      2.200   0.01083759  20.0440         53
 3.50   0.0000    322.0853    697.3419     21409.15      43.5214   1.78     1.882     1.848      2.105   0.01084128  17.2235         54
 7.64   0.0000    308.7069     85.2985     625.7094      43.5214  45.78     0.969     0.767      2.224   0.01083637  21.0591         55
 6.05   0.0000    321.9905    641.4783     1530.613      43.5214 -64.00     1.799     1.232      2.952   0.01084864  20.0878         56
 5.16   0.0000    327.5369    595.4523     3544.603      43.5214 -52.10     1.728     1.694      2.371   0.01084251  19.1761         57
 6.07   0.0000    329.2517   1546.0168     708.6262      43.5214 -87.78     0.913     0.756      2.280   0.01084987  20.9240         58
 5.83   0.0000    332.2679     93.4347     853.2532      43.5214  20.40     0.992     0.948      2.146   0.01084742  20.7223         59
 4.78   0.0000    350.1319     54.7084      1865.79      43.5214  -8.51     1.366     1.298      2.235   0.01083882  19.8728         60
 3.50   0.0000    368.1670    761.1217     21904.03      43.5214 -26.12     1.940     1.871      2.135   0.01084496  17.1987         61
 4.02   0.0000    361.1491   1500.4037      3816.57      43.5214 -15.08     1.586     1.464      2.238   0.01085355  19.0958         62
 3.50   0.0000    395.2009    231.4691     116723.3      43.5214 -63.05     2.184     2.143      2.274    0.0108511  15.3821         63
 5.78   0.0000    360.5269   1034.0070     1023.506      43.5214  -1.40     1.111     0.957      2.258    0.0108511  20.5248         64
 6.91   0.0000    375.4792    754.0627     856.4318      43.5214  56.22     1.715     0.961      1.969   0.01083882  20.7183         65
 7.68   0.0000    370.3091     71.9499     517.5765      43.5214 -10.89     0.743     0.672      2.193   0.01084251  21.2651         66
 6.47   0.0000    373.4826   1083.8826     783.5237      43.5214 -17.84     1.100     0.990      2.460   0.01083882  20.8149         67
 6.41   0.0001    380.6161      1.4882     72.88393      43.5214 -89.79     1.601     0.500      3.001  0.008287528  23.3934         68
 3.50   0.0000    397.0519   1461.2017     16145.01      43.5214 -44.85     1.804     1.797      2.123   0.01085355  17.5299         69
 3.50   0.0000    398.1799    354.6261     17275.54      43.5214 -13.53     1.890     1.844      2.234   0.01084619  17.4564         70
 8.09   0.0000    375.6552     87.2937     452.4563      43.5214  47.61     0.564     0.339      2.066   0.01084005  21.4111         71
 6.71   0.0000    380.1594    125.8447     665.2145      43.5214  44.65     0.818     0.680      2.366   0.01084864  20.9926         72
 4.22   0.0000    393.8183   1088.7736      3763.32      43.5214 -35.06     1.516     1.449      2.168   0.01084742  19.1111         73
 8.89   0.0000    382.4900     67.5055     542.9714      43.5214 -44.69     0.503     0.497      2.107   0.01083514  21.2131         74
 8.07   0.0000    388.6902   1195.3347     366.0609      43.5214  43.77     0.567     0.338      2.513   0.01084251  21.6411         75
 6.14   0.0000    412.0432      1.7727     185.8294      43.5214  90.00     2.505     0.701      4.384  0.008460782  22.3772         76
 7.90   0.0000    396.8768    626.5975     1331.799      43.5214 -73.71     1.239     0.985      2.979   0.01084742  20.2389         77
 8.16   0.0000    403.6928    526.4366     616.5467      43.5214  81.17     1.023     0.476      2.315   0.01084005  21.0751         78
 7.54   0.0000    407.0518    282.4902     484.6803      43.5214 -88.59     0.787     0.500      2.013   0.01084251  21.3364         79
 3.50   0.0000    437.9478    252.1072     36017.16      43.5214 -87.21     2.006     1.974      2.228   0.01084005  16.6587         80
 3.50   0.0000    461.0704    807.6703       301215      43.5214 -68.51     2.341     2.304      2.152   0.01083391  14.3528         81
 5.83   0.0000    420.9021    159.0900     1557.586      43.5214  37.62     1.694     1.421      2.327   0.01083514  20.0689         82
 7.67   0.0000    419.5386   1580.4929     402.4869      43.5214  40.47     0.504     0.495      2.328   0.01084005  21.5381         83
 4.17   0.0000    432.9492   1422.0629     2468.448      43.5214   6.85     1.427     1.396      2.117   0.01084251  19.5689         84
 6.72   0.0000    426.5748   1179.2787     933.3196      43.5214  26.35     1.188     0.957      2.545   0.01084619  20.6249         85
 6.42   0.0000    426.8329    433.0970     87478.73      43.5214  -3.27     2.183     0.735      4.317   0.01083759  15.6952         86
 5.15   0.0000    434.2586    151.1154     1081.703      43.5214 -20.05     1.138     1.034      2.080   0.01084128  20.4647         87
 3.88   0.0000    450.3392     21.3603     10921.21      43.5214 -27.47     1.777     1.769      2.189   0.01084742  17.9543         88
 5.07   0.0000    467.7993    850.4810     8207.515      43.5214  22.59     7.403     2.054      4.920   0.01084742  18.2645         89
 9.05   0.0000    430.6650    719.3185     771.7382      43.5214  45.76     0.572     0.336      1.959   0.01083759  20.8313         90
 4.48   0.0000    440.0043    305.8401     1217.208      43.5214  22.45     1.160     1.136      2.133   0.01084742  20.3366         91
 5.42   0.0000    445.2589    122.3780     1632.222      43.5214 -23.52     1.401     1.309      2.342   0.01084987  20.0181         92
 3.80   0.0000    457.8408     34.5939     12583.06      43.5214 -30.83     1.779     1.767      2.229   0.01084864  17.8005         93
 8.05   0.0000    443.6886    655.3237     371.5603      43.5214  44.36     0.563     0.340      2.120   0.01083637  21.6249         94
 4.32   0.0000    463.6414    468.6490     3597.098      43.5214  70.99     1.619     1.558      2.260   0.01084987  19.1601         95
 6.24   0.0000    452.9206   1533.0249      603.096      43.5214 -31.03     0.792     0.774      2.223   0.01084619  21.0990         96
 5.22   0.0000    460.9918   1096.1410     1111.488      43.5214  47.71     1.191     1.080      2.398   0.01085355  20.4352         97
 4.60   0.0000    471.3581    254.2742     3106.333      43.5214 -79.51     1.510     1.439      2.209   0.01084373  19.3194         98
 4.03   0.0000    472.1380    734.9207     4418.401      43.5214  75.27     1.566     1.511      2.201   0.01083882  18.9368         99
 7.71   0.0000    461.8358    724.7247     681.7328      43.5214 -20.12     0.949     0.683      2.467   0.01084373  20.9660        100
 3.70   0.0000    477.9271    923.0840     6013.476      43.5214 -28.67     1.679     1.612      2.144   0.01083882  18.6022        101
 4.34   0.0000    477.2791   1276.4363     2189.677      43.5214 -44.53     1.334     0.920      3.026   0.01084373  19.6990        102
 5.84   0.0000    488.9431    839.6031     976.8257      43.5214  87.10     2.059     0.959      2.865   0.01085355  20.5755        103
 4.14   0.0000    484.0388   1070.6680     2596.878      43.5214 -80.82     1.429     1.400      2.173   0.01084619  19.5139        104
 7.10   0.0000    475.9789   1168.4807     430.2747      43.5214  89.68     0.781     0.500      2.044   0.01084742  21.4656        105
 5.40   0.0000    496.2654     82.9187     3895.051      43.5214  66.13     2.311     2.046      3.163   0.01083759  19.0737        106
 6.87   0.0000    478.8629    682.8434     593.9276      43.5214 -46.10     0.819     0.679      2.177   0.01084373  21.1157        107
 5.12   0.0000    495.7248   1186.8407     3846.276      43.5214 -15.71     2.996     1.931      3.320   0.01084373  19.0874        108
 5.26   0.0000    504.0796    762.8668     2303.375      43.5214 -10.71     1.688     1.646      2.523   0.01083759  19.6441        109
 4.77   0.0000    502.0138    863.8067     1451.021      43.5214  64.62     1.201     1.192      2.262   0.01084005  20.1458        110
 4.57   0.0000    515.3623   1461.0657     4861.396      43.5214  23.93     4.115     1.649      2.875   0.01084742  18.8331        111
 6.08   0.0000    498.0054    366.2516     591.8252      43.5214   0.37     0.926     0.749      2.303   0.01085355  21.1195        112
 6.08   0.0000    509.9191    164.8152     1539.787      43.5214  -5.95     1.820     1.073      2.951   0.01084864  20.0813        113
 4.83   0.0000    513.8598   1179.1876     1541.083      43.5214  24.06     1.285     1.178      2.178   0.01084864  20.0804        114
 5.52   0.0000    519.1540    641.9484     1100.457      43.5214  22.36     1.200     1.120      2.336    0.0108511  20.4461        115
 6.45   0.0000    518.1915   1519.1722     528.3224      43.5214  45.74     0.761     0.567      2.211   0.01084742  21.2428        116
 4.09   0.0000    540.2067    999.9378     4000.219      43.5214  61.15     1.534     1.490      2.185   0.01085232  19.0448        117
 6.53   0.0000    536.3547    404.5305     713.1489      43.5214  38.93     1.195     0.786      1.929   0.01084251  20.9170        118
 3.90   0.0000    558.9035   1041.7982     5192.386      43.5214   6.20     1.633     1.563      2.198   0.01084496  18.7616        119
 4.74   0.0000    571.3472     45.9143     3485.239      43.5214  46.17     2.084     1.522      2.233   0.01084005  19.1944        120
 5.98   0.0000    555.8228    778.8107     427.4542      43.5214  44.57     0.756     0.567      2.169   0.01084496  21.4728        121
 3.50   0.0000    580.7163    144.9663     22221.83      43.5214  83.47     1.885     1.868      2.248   0.01084619  17.1831        122
 4.85   0.0000    571.3085   1447.7944     3004.882      43.5214  19.43     2.258     1.637      2.372   0.01084128  19.3554        123
 5.88   0.0000    565.0881    139.5546     942.8123      43.5214 -69.74     1.052     0.977      2.122   0.01084128  20.6139        124
 3.50   0.0000    582.1971    319.2584     21036.81      43.5214   7.31     1.887     1.830      2.123   0.01085355  17.2425        125
 4.29   0.0000    596.7602    782.6867     9764.102      43.5214 -62.08     3.302     3.182      3.568   0.01084496  18.0759        126
 5.97   0.0000    576.2225   1001.8235      994.595      43.5214  40.80     1.216     1.076      2.325   0.01084742  20.5559        127
 4.64   0.0000    584.5398     76.0209     1358.577      43.5214  -0.84     1.205     1.138      2.264   0.01084987  20.2173        128
 4.19   0.0000   1001.5298   1555.4829     2550.842      43.5214  54.97     1.346     1.330      2.155   0.01083759  19.5333        129
 4.71   0.0000   1597.6036    654.7847     719.6192      43.5214   1.75     1.659     1.434      2.643  0.009325878  20.9072        130
 5.16   0.0000   1594.7568    374.1190     1003.752      43.5214  42.74     1.307     1.027      1.916   0.01047918  20.5459        131
 4.05   0.0000   1584.9181   1108.9316     4189.161      43.5214 -15.59     1.433     1.357      2.173   0.01084005  18.9947        132
 6.78   0.0000   1585.9497   1069.5099     1289.803      43.5214 -88.96     0.783     0.500      2.343   0.01084128  20.2737        133
 3.60   0.0000   1541.8564    135.1745     8880.688      43.5214  54.68     1.663     1.623      2.132   0.01084864  18.1789        134
 8.74   0.0000   1519.3268     85.3294      925.252      43.5214 -44.88     0.573     0.336      1.937   0.01083637  20.6343        135
 4.79   0.0000   1514.6519    483.6263      1801.94      43.5214 -43.74     1.049     0.951      2.286   0.01084987  19.9106        136
 4.90   0.0000    912.4185   1001.2366     1277.624      43.5214  73.44     0.989     0.957      2.097   0.01084864  20.2840        137
 3.50   0.0000    900.4997    302.8331     14789.73      43.5214 -64.19     1.794     1.787      2.207   0.01083514  17.6251        138
