#   1 KRON_RADIUS            Kron apertures in units of A or B                         
#   2 MAGERR_APER            RMS error vector for fixed aperture mag.                   [mag]
#   3 Y_IMAGE                Object position along y                                    [pixel]
#   4 X_IMAGE                Object position along x                                    [pixel]
#   5 FLUX_APER              Flux vector within fixed circular aperture(s)              [count]
#   6 THRESHOLD              Detection threshold above background                       [count]
#   7 THETA_IMAGE            Position angle (CCW/x)                                     [deg]
#   8 A_IMAGE                Profile RMS along major axis                               [pixel]
#   9 B_IMAGE                Profile RMS along minor axis                               [pixel]
#  10 FLUX_RADIUS            Fraction-of-light radii                                    [pixel]
#  11 FLUXERR_APER           RMS error vector for aperture flux(es)                     [count]
#  12 MAG_APER               Fixed aperture magnitude vector                            [mag]
#  13 NUMBER                 Running object number                                     
 4.23   0.0000     53.2652     63.6543     84167.04      43.5214   3.17     5.181     4.630      2.992  0.006571121  15.7371          1
 3.95   0.0000     16.5149    985.0804     13846.36      43.5214 -88.61     4.203     1.941      2.744  0.006568888  17.6967          2
 4.06   0.0000     18.0504     91.3141     13912.67      43.5214   0.42     1.768     1.716      2.388  0.006570376  17.6915          3
 3.50   0.0000     14.6167   1445.7477     37993.99      43.5214 -47.82     1.890     1.819      2.414  0.006575583  16.6007          4
 8.12   0.0000     10.2946   1183.6542     535.4176      43.5214  42.42     0.565     0.339      2.444  0.006568888  21.2283          5
 7.36   0.0000      4.2259    145.0241     491.2158      43.5214  89.83     0.957     0.768      3.351  0.005889189  21.3218          6
 6.64   0.0000     17.2495    384.5071     1269.051      43.5214  19.99     0.993     0.952      2.458  0.006568144  20.2913          7
 5.14   0.0000     24.7971    367.2085     2698.791      43.5214  13.81     1.305     1.234      2.319  0.006571121  19.4721          8
 3.50   0.0000     59.7850   1078.4766     113903.5      43.5214  77.02     2.287     2.159      2.544  0.006577813  15.4087          9
 8.57   0.0000     23.7800    383.3999     1694.355      43.5214 -71.85     0.755     0.452      2.539  0.006573352  19.9775         10
 6.41   0.0000     33.9023   1110.1802     1249.727      43.5214  68.24     1.657     0.778      2.453  0.006570376  20.3080         11
 7.88   0.0000     33.3076    326.9492     712.9064      43.5214  -6.92     0.747     0.677      2.357  0.006569632  20.9174         12
 5.98   0.0000     37.8655   1521.1591     740.6852      43.5214  46.72     0.834     0.669      2.437  0.006573352  20.8759         13
 7.05   0.0000     38.8750   1170.6508      781.671      43.5214 -19.52     0.923     0.691      2.475  0.006568888  20.8174         14
 5.87   0.0000     42.4605    915.4996     781.9586      43.5214 -77.10     0.913     0.907      2.335  0.006568144  20.8170         15
 3.50   0.0000     80.1536    537.6561     103354.6      43.5214 -59.56     2.145     2.122      2.554  0.006572608  15.5142         16
 9.02   0.0000     44.6655    440.6699     668.2375      43.5214 -45.19     0.576     0.334      1.904  0.006569632  20.9877         17
 4.26   0.0000     75.2162    128.0142     5815.198      43.5214  -5.75     1.516     1.469      2.287  0.006573352  18.6386         18
 6.64   0.0000     82.2787    421.5101     1041.206      43.5214 -15.66     0.994     0.986      2.478  0.006568144  20.5062         19
 3.50   0.0000    121.8120    789.2006     135869.2      43.5214 -62.81     2.230     2.179      2.586  0.006573352  15.2172         20
 6.02   0.0000     90.7295    376.9918     1954.738      43.5214   4.47     1.628     1.442      2.588  0.006576327  19.8223         21
 4.42   0.0000     96.6151     56.2576     8624.082      43.5214 -38.95     1.639     1.566      2.298  0.006574096  18.2107         22
 6.10   0.0000     98.0585    452.9797     1394.988      43.5214 -14.82     1.454     1.005      2.299  0.006575583  20.1886         23
 7.39   0.0000     91.4945    495.9650     859.5184      43.5214  -1.40     0.788     0.500      2.353  0.006568888  20.7144         24
 3.50   0.0000    162.2989   1468.3301     99526.36      43.5214 -48.48     2.111     2.074      2.534  0.006569632  15.5552         25
 6.85   0.0000    131.2865    418.0175     567.8228      43.5214   5.64     0.729     0.681      2.347  0.006572608  21.1645         26
 3.55   0.0000    170.2996    877.3505     32558.28      43.5214  -8.96     1.882     1.865      2.460  0.006564421  16.7683         27
 8.52   0.0000    151.4999   1280.4825     680.8466      43.5214 -47.88     0.501     0.498      2.185  0.006565166  20.9674         28
 5.51   0.0000    164.9741   1445.6677     2130.291      43.5214  17.35     1.303     1.186      2.427  0.006574096  19.7289         29
 4.82   0.0000    166.8505    104.4303     1984.161      43.5214 -46.35     1.196     1.124      2.464  0.006575583  19.8061         30
 6.42   0.0000    169.3397   1368.8977     539.2993      43.5214  68.06     0.910     0.689      2.325  0.006568144  21.2204         31
 7.68   0.0000    180.3316    574.9897     1118.898      43.5214  53.18     1.039     0.643      2.633   0.00657707  20.4280         32
 7.49   0.0000    186.6387   1354.8976     917.1722      43.5214  75.59     1.045     0.753      2.727  0.006567399  20.6439         33
 5.30   0.0000    192.6023   1350.5554     3087.866      43.5214 -19.15     1.368     1.305      2.490   0.00657707  19.3259         34
 4.77   0.0000    210.7202    827.6749     9382.311      43.5214  -5.78     3.810     2.091      2.586  0.006570376  18.1192         35
 4.14   0.0000    206.7225    549.0807     6203.091      43.5214   3.37     1.545     1.484      2.289  0.006571121  18.5685         36
 4.19   0.0000    212.1664   1306.1005     5844.102      43.5214 -64.54     1.516     1.487      2.200   0.00656591  18.6332         37
 5.52   0.0000    230.1494    562.2775     8000.589      43.5214 -37.31     3.231     3.004      3.469  0.006568888  18.2922         38
 5.76   0.0000    210.8939    684.8484     1384.762      43.5214 -66.39     1.218     1.115      2.352  0.006568144  20.1966         39
 3.50   0.0000    259.7588    997.4791     194768.8      43.5214 -48.81     2.331     2.263      2.547  0.006571865  14.8262         40
 3.92   0.0000    223.9121   1226.0618     7104.439      43.5214  25.89     1.523     1.479      2.239  0.006569632  18.4212         41
 4.86   0.0000    222.6267    774.9695     2256.126      43.5214  81.57     1.224     1.191      2.263  0.006574096  19.6666         42
 3.50   0.0000    265.9002     67.6173     167183.3      43.5214 -49.31     2.268     2.237      2.581  0.006570376  14.9920         43
 5.52   0.0000    243.9732    112.8913     3532.536      43.5214 -88.19     1.951     1.539      2.714  0.006571121  19.1798         44
 4.81   0.0000    255.4885    613.0098     8852.306      43.5214 -41.01     2.436     2.028      2.365  0.006573352  18.1824         45
 6.52   0.0000    239.3535    838.8231      1199.76      43.5214  -5.84     1.203     1.102      2.347  0.006574839  20.3523         46
 7.18   0.0000    250.5180    107.4840     984.1017      43.5214 -42.78     1.108     0.852      2.461  0.006568888  20.5674         47
 3.50   0.0000    287.5196   1486.4733     63533.32      43.5214 -43.97     2.033     1.992      2.505  0.006569632  16.0425         48
 3.66   0.0000    281.9236   1522.4003     16600.57      43.5214   3.77     1.701     1.668      2.398  0.006574096  17.4997         49
 6.46   0.0000    270.7727   1273.6278     1149.678      43.5214  16.49     1.000     0.849      2.409  0.006574839  20.3986         50
 3.50   0.0000    303.1506    201.7659     51138.33      43.5214 -78.11     1.968     1.942      2.468  0.006574096  16.2781         51
 6.27   0.0000    293.2967   1475.8354     1764.357      43.5214 -33.66     1.250     1.086      2.181  0.006566655  19.9335         52
 4.64   0.0000    302.2875    563.6751     2779.962      43.5214  31.81     1.325     1.283      2.390  0.006568144  19.4399         53
 3.50   0.0000    322.0853    697.3419     36947.05      43.5214   1.78     1.882     1.848      2.398  0.006570376  16.6311         54
 7.64   0.0000    308.7069     85.2985       932.75      43.5214  45.78     0.969     0.767      2.372  0.006567399  20.6256         55
 6.05   0.0000    321.9905    641.4783     2035.661      43.5214 -64.00     1.799     1.232      2.840  0.006574839  19.7782         56
 5.16   0.0000    327.5369    595.4523     4989.415      43.5214 -52.10     1.728     1.694      2.403  0.006571121  18.8049         57
 6.07   0.0000    329.2517   1546.0168     1212.882      43.5214 -87.78     0.913     0.756      2.386  0.006575583  20.3405         58
 5.83   0.0000    332.2679     93.4347     1401.598      43.5214  20.40     0.992     0.948      2.267  0.006574096  20.1834         59
 4.78   0.0000    350.1319     54.7084     3170.568      43.5214  -8.51     1.366     1.298      2.399  0.006568888  19.2972         60
 3.50   0.0000    368.1670    761.1217     37940.47      43.5214 -26.12     1.940     1.871      2.358  0.006572608  16.6022         61
 4.02   0.0000    361.1491   1500.4037     6605.967      43.5214 -15.08     1.586     1.464      2.413  0.006577813  18.5002         62
 3.50   0.0000    395.2009    231.4691     113486.8      43.5214 -63.05     2.184     2.143      2.562  0.006576327  15.4126         63
 5.78   0.0000    360.5269   1034.0070     1502.032      43.5214  -1.40     1.111     0.957      2.358  0.006576327  20.1083         64
 6.91   0.0000    375.4792    754.0627     766.8336      43.5214  56.22     1.715     0.961      2.083  0.006568888  20.8382         65
 7.68   0.0000    370.3091     71.9499     694.1352      43.5214 -10.89     0.743     0.672      2.325  0.006571121  20.9464         66
 6.47   0.0000    373.4826   1083.8826     1153.766      43.5214 -17.84     1.100     0.990      2.374  0.006568888  20.3947         67
 6.41   0.0000    380.6161      1.4882      262.098      43.5214 -89.79     1.601     0.500      3.001  0.005022671  22.0038         68
 3.50   0.0000    397.0519   1461.2017     26256.82      43.5214 -44.85     1.804     1.797      2.307  0.006577813  17.0019         69
 3.50   0.0000    398.1799    354.6261     29457.63      43.5214 -13.53     1.890     1.844      2.440  0.006573352  16.8770         70
 8.09   0.0000    375.6552     87.2937     695.8632      43.5214  47.61     0.564     0.339      2.227  0.006569632  20.9437         71
 6.71   0.0000    380.1594    125.8447     1037.231      43.5214  44.65     0.818     0.680      2.398  0.006574839  20.5103         72
 4.22   0.0000    393.8183   1088.7736      6287.72      43.5214 -35.06     1.516     1.449      2.394  0.006574096  18.5538         73
 8.89   0.0000    382.4900     67.5055     834.4193      43.5214 -44.69     0.503     0.497      2.137  0.006566655  20.7465         74
 8.07   0.0000    388.6902   1195.3347     632.9774      43.5214  43.77     0.567     0.338      2.631  0.006571121  21.0465         75
 6.14   0.0000    412.0432      1.7727     435.3546      43.5214  90.00     2.505     0.701      4.361  0.005127673  21.4529         76
 7.90   0.0000    396.8768    626.5975     1669.079      43.5214 -73.71     1.239     0.985      2.746  0.006574096  19.9938         77
 8.16   0.0000    403.6928    526.4366     898.1588      43.5214  81.17     1.023     0.476      2.522  0.006569632  20.6666         78
 7.54   0.0000    407.0518    282.4902     851.5068      43.5214 -88.59     0.787     0.500      2.194  0.006571121  20.7245         79
 3.50   0.0000    437.9478    252.1072     54712.62      43.5214 -87.21     2.006     1.974      2.488  0.006569632  16.2048         80
 3.50   0.0000    461.0704    807.6703       221318      43.5214 -68.51     2.341     2.304      2.526   0.00656591  14.6875         81
 5.83   0.0000    420.9021    159.0900     2221.969      43.5214  37.62     1.694     1.421      2.384  0.006566655  19.6832         82
 7.67   0.0000    419.5386   1580.4929     718.0947      43.5214  40.47     0.504     0.495      2.570  0.006569632  20.9095         83
 4.17   0.0000    432.9492   1422.0629     4206.291      43.5214   6.85     1.427     1.396      2.195  0.006571121  18.9903         84
 6.72   0.0000    426.5748   1179.2787     1404.004      43.5214  26.35     1.188     0.957      2.685  0.006573352  20.1816         85
 6.42   0.0000    426.8329    433.0970     83276.84      43.5214  -3.27     2.183     0.735      4.432  0.006568144  15.7487         86
 5.15   0.0000    434.2586    151.1154     1939.771      43.5214 -20.05     1.138     1.034      2.129  0.006570376  19.8306         87
 3.88   0.0000    450.3392     21.3603     18355.52      43.5214 -27.47     1.777     1.769      2.409  0.006574096  17.3906         88
 5.07   0.0000    467.7993    850.4810     11310.27      43.5214  22.59     7.403     2.054      4.306  0.006574096  17.9163         89
 9.05   0.0000    430.6650    719.3185     1034.063      43.5214  45.76     0.572     0.336      2.153  0.006568144  20.5136         90
 4.48   0.0000    440.0043    305.8401     2028.002      43.5214  22.45     1.160     1.136      2.308  0.006574096  19.7823         91
 5.42   0.0000    445.2589    122.3780     2244.571      43.5214 -23.52     1.401     1.309      2.410  0.006575583  19.6722         92
 3.80   0.0000    457.8408     34.5939      20803.6      43.5214 -30.83     1.779     1.767      2.503  0.006574839  17.2547         93
 8.05   0.0000    443.6886    655.3237     597.2247      43.5214  44.36     0.563     0.340      2.194  0.006567399  21.1097         94
 4.32   0.0000    463.6414    468.6490     6277.996      43.5214  70.99     1.619     1.558      2.520  0.006575583  18.5554         95
 6.24   0.0000    452.9206   1533.0249     1071.751      43.5214 -31.03     0.792     0.774      2.365  0.006573352  20.4748         96
 5.22   0.0000    460.9918   1096.1410     1911.839      43.5214  47.71     1.191     1.080      2.462  0.006577813  19.8464         97
 4.60   0.0000    471.3581    254.2742     5425.125      43.5214 -79.51     1.510     1.439      2.395  0.006571865  18.7140         98
 4.03   0.0000    472.1380    734.9207     8294.206      43.5214  75.27     1.566     1.511      2.254  0.006568888  18.2531         99
 7.71   0.0000    461.8358    724.7247     1049.389      43.5214 -20.12     0.949     0.683      2.505  0.006571865  20.4977        100
 3.70   0.0000    477.9271    923.0840     10286.29      43.5214 -28.67     1.679     1.612      2.232  0.006568888  18.0194        101
 4.34   0.0000    477.2791   1276.4363     3555.952      43.5214 -44.53     1.334     0.920      3.107  0.006571865  19.1726        102
 5.84   0.0000    488.9431    839.6031     1449.637      43.5214  87.10     2.059     0.959      2.755  0.006577813  20.1469        103
 4.14   0.0000    484.0388   1070.6680     4451.288      43.5214 -80.82     1.429     1.400      2.381  0.006573352  18.9288        104
 7.10   0.0000    475.9789   1168.4807     774.3225      43.5214  89.68     0.781     0.500      2.260  0.006574096  20.8277        105
 5.40   0.0000    496.2654     82.9187     5195.135      43.5214  66.13     2.311     2.046      2.664  0.006568144  18.7610        106
 6.87   0.0000    478.8629    682.8434     858.6686      43.5214 -46.10     0.819     0.679      2.293  0.006571865  20.7154        107
 5.12   0.0000    495.7248   1186.8407      5060.53      43.5214 -15.71     2.996     1.931      2.970  0.006571865  18.7895        108
 5.26   0.0000    504.0796    762.8668     3367.115      43.5214 -10.71     1.688     1.646      2.487  0.006568144  19.2319        109
 4.77   0.0000    502.0138    863.8067     2341.344      43.5214  64.62     1.201     1.192      2.349  0.006569632  19.6263        110
 4.57   0.0000    515.3623   1461.0657     7320.625      43.5214  23.93     4.115     1.649      2.684  0.006574096  18.3886        111
 6.08   0.0000    498.0054    366.2516     1000.186      43.5214   0.37     0.926     0.749      2.558  0.006577813  20.5498        112
 6.08   0.0000    509.9191    164.8152     2268.823      43.5214  -5.95     1.820     1.073      3.006  0.006574839  19.6605        113
 4.83   0.0000    513.8598   1179.1876     2578.109      43.5214  24.06     1.285     1.178      2.339  0.006574839  19.5217        114
 5.52   0.0000    519.1540    641.9484     1731.139      43.5214  22.36     1.200     1.120      2.365  0.006576327  19.9542        115
 6.45   0.0000    518.1915   1519.1722     885.0298      43.5214  45.74     0.761     0.567      2.383  0.006574096  20.6826        116
 4.09   0.0000    540.2067    999.9378     6384.119      43.5214  61.15     1.534     1.490      2.251   0.00657707  18.5372        117
 6.53   0.0000    536.3547    404.5305     1077.236      43.5214  38.93     1.195     0.786      2.322  0.006571121  20.4692        118
 3.90   0.0000    558.9035   1041.7982     8535.063      43.5214   6.20     1.633     1.563      2.389  0.006572608  18.2220        119
 4.74   0.0000    571.3472     45.9143     4777.898      43.5214  46.17     2.084     1.522      2.296  0.006569632  18.8519        120
 5.98   0.0000    555.8228    778.8107      707.001      43.5214  44.57     0.756     0.567      2.388  0.006572608  20.9264        121
 3.50   0.0000    580.7163    144.9663     37243.34      43.5214  83.47     1.885     1.868      2.421  0.006573352  16.6224        122
 4.85   0.0000    571.3085   1447.7944     4030.555      43.5214  19.43     2.258     1.637      2.154  0.006570376  19.0366        123
 5.88   0.0000    565.0881    139.5546     1356.119      43.5214 -69.74     1.052     0.977      2.336  0.006570376  20.2193        124
 3.50   0.0000    582.1971    319.2584     35801.42      43.5214   7.31     1.887     1.830      2.377  0.006577813  16.6652        125
 4.29   0.0000    596.7602    782.6867     13027.61      43.5214 -62.08     3.302     3.182      3.242  0.006572608  17.7628        126
 5.97   0.0000    576.2225   1001.8235     1400.458      43.5214  40.80     1.216     1.076      2.372  0.006574096  20.1843        127
 4.64   0.0000    584.5398     76.0209     2139.657      43.5214  -0.84     1.205     1.138      2.344  0.006575583  19.7241        128
 4.19   0.0000   1001.5298   1555.4829     4347.799      43.5214  54.97     1.346     1.330      2.443  0.006568144  18.9543        129
 4.71   0.0000   1597.6036    654.7847     1497.682      43.5214   1.75     1.659     1.434      3.000  0.005651965  20.1115        130
 5.16   0.0000   1594.7568    374.1190     1755.718      43.5214  42.74     1.307     1.027      2.062  0.006350923  19.9389        131
 4.05   0.0000   1584.9181   1108.9316     7332.427      43.5214 -15.59     1.433     1.357      2.267  0.006569632  18.3869        132
 6.78   0.0000   1585.9497   1069.5099     2224.667      43.5214 -88.96     0.783     0.500      2.523  0.006570376  19.6818        133
 3.60   0.0000   1541.8564    135.1745     14911.87      43.5214  54.68     1.663     1.623      2.245  0.006574839  17.6162        134
 8.74   0.0000   1519.3268     85.3294     1543.571      43.5214 -44.88     0.573     0.336      2.035  0.006567399  20.0787        135
 4.79   0.0000   1514.6519    483.6263     3366.443      43.5214 -43.74     1.049     0.951      2.477  0.006575583  19.2321        136
 4.90   0.0000    912.4185   1001.2366     2087.726      43.5214  73.44     0.989     0.957      2.148  0.006574839  19.7508        137
 3.50   0.0000    900.4997    302.8331     24594.84      43.5214 -64.19     1.794     1.787      2.406  0.006566655  17.0729        138
