#   1 KRON_RADIUS            Kron apertures in units of A or B                         
#   2 MAGERR_APER            RMS error vector for fixed aperture mag.                   [mag]
#   3 Y_IMAGE                Object position along y                                    [pixel]
#   4 X_IMAGE                Object position along x                                    [pixel]
#   5 FLUX_APER              Flux vector within fixed circular aperture(s)              [count]
#   6 THRESHOLD              Detection threshold above background                       [count]
#   7 THETA_IMAGE            Position angle (CCW/x)                                     [deg]
#   8 A_IMAGE                Profile RMS along major axis                               [pixel]
#   9 B_IMAGE                Profile RMS along minor axis                               [pixel]
#  10 FLUX_RADIUS            Fraction-of-light radii                                    [pixel]
#  11 FLUXERR_APER           RMS error vector for aperture flux(es)                     [count]
#  12 MAG_APER               Fixed aperture magnitude vector                            [mag]
#  13 NUMBER                 Running object number                                     
 4.23   0.0009     53.2652     63.6543       134404      43.5214   3.17     5.181     4.630      4.120     108.6771  15.2290          1
 3.95   0.0052     16.5149    985.0804     22890.48      43.5214 -88.61     4.203     1.941      3.345     108.6402  17.1509          2
 4.06   0.0066     18.0504     91.3141     17824.41      43.5214   0.42     1.768     1.716      1.682     108.6648  17.4225          3
 3.50   0.0027     14.6167   1445.7477     43642.86      43.5214 -47.82     1.890     1.819      1.577     108.7509  16.4502          4
 8.12   0.1021     10.2946   1183.6542     1155.431      43.5214  42.42     0.565     0.339      1.428     108.6402  20.3931          5
 7.36   0.0489      4.2259    145.0241     2163.783      43.5214  89.83     0.957     0.768      2.281     97.39894  19.7120          6
 6.64   0.0454     17.2495    384.5071     2598.104      43.5214  19.99     0.993     0.952      1.945     108.6279  19.5134          7
 5.14   0.0278     24.7971    367.2085      4247.18      43.5214  13.81     1.305     1.234      1.717     108.6771  18.9797          8
 3.50   0.0006     59.7850   1078.4766     194549.5      43.5214  77.02     2.287     2.159      1.611     108.7878  14.8274          9
 8.57   0.0602     23.7800    383.3999     1962.163      43.5214 -71.85     0.755     0.452      2.036      108.714  19.8182         10
 6.41   0.0453     33.9023   1110.1802     2602.305      43.5214  68.24     1.657     0.778      2.399     108.6648  19.5116         11
 7.88   0.0602     33.3076    326.9492     1960.476      43.5214  -6.92     0.747     0.677      2.145     108.6525  19.8191         12
 5.98   0.0907     37.8655   1521.1591     1301.652      43.5214  46.72     0.834     0.669      1.485      108.714  20.2638         13
 7.05   0.0693     38.8750   1170.6508     1702.674      43.5214 -19.52     0.923     0.691      1.895     108.6402  19.9722         14
 5.87   0.0734     42.4605    915.4996     1606.964      43.5214 -77.10     0.913     0.907      1.644     108.6279  20.0350         15
 3.50   0.0006     80.1536    537.6561     189134.2      43.5214 -59.56     2.145     2.122      1.587     108.7017  14.8581         16
 9.02   0.0685     44.6655    440.6699     1721.462      43.5214 -45.19     0.576     0.334      1.914     108.6525  19.9603         17
 4.26   0.0149     75.2162    128.0142     7931.633      43.5214  -5.75     1.516     1.469      1.696      108.714  18.3016         18
 6.64   0.0494     82.2787    421.5101     2389.493      43.5214 -15.66     0.994     0.986      2.097     108.6279  19.6042         19
 3.50   0.0004    121.8120    789.2006       278850      43.5214 -62.81     2.230     2.179      1.552      108.714  14.4366         20
 6.02   0.0250     90.7295    376.9918     4717.145      43.5214   4.47     1.628     1.442      2.931     108.7632  18.8658         21
 4.42   0.0104     96.6151     56.2576     11363.54      43.5214 -38.95     1.639     1.566      1.749     108.7263  17.9112         22
 6.10   0.0379     98.0585    452.9797     3115.728      43.5214 -14.82     1.454     1.005      2.304     108.7509  19.3161         23
 7.39   0.0797     91.4945    495.9650     1479.937      43.5214  -1.40     0.788     0.500      1.563     108.6402  20.1244         24
 3.50   0.0007    162.2989   1468.3301     157946.5      43.5214 -48.48     2.111     2.074      1.575     108.6525  15.0537         25
 6.85   0.0832    131.2865    418.0175     1419.078      43.5214   5.64     0.729     0.681      1.656     108.7017  20.1700         26
 3.55   0.0032    170.2996    877.3505     37156.26      43.5214  -8.96     1.882     1.865      1.604     108.5663  16.6249         27
 8.52   0.0948    151.4999   1280.4825     1243.731      43.5214 -47.88     0.501     0.498      1.671     108.5787  20.3132         28
 5.51   0.0300    164.9741   1445.6677     3930.979      43.5214  17.35     1.303     1.186      1.895     108.7263  19.0637         29
 4.82   0.0432    166.8505    104.4303     2731.369      43.5214 -46.35     1.196     1.124      1.663     108.7509  19.4590         30
 6.42   0.0757    169.3397   1368.8977     1557.479      43.5214  68.06     0.910     0.689      1.589     108.6279  20.0689         31
 7.68   0.0555    180.3316    574.9897     2126.616      43.5214  53.18     1.039     0.643      2.339     108.7755  19.7308         32
 7.49   0.0480    186.6387   1354.8976     2459.735      43.5214  75.59     1.045     0.753      2.351     108.6156  19.5728         33
 5.30   0.0248    192.6023   1350.5554      4770.27      43.5214 -19.15     1.368     1.305      1.860     108.7755  18.8536         34
 4.77   0.0068    210.7202    827.6749     17243.78      43.5214  -5.78     3.810     2.091      3.626     108.6648  17.4584         35
 4.14   0.0145    206.7225    549.0807     8116.606      43.5214   3.37     1.545     1.484      1.672     108.6771  18.2766         36
 4.19   0.0146    212.1664   1306.1005     8068.497      43.5214 -64.54     1.516     1.487      1.632      108.591  18.2830         37
 5.52   0.0078    230.1494    562.2775     15133.58      43.5214 -37.31     3.231     3.004      4.857     108.6402  17.6001         38
 5.76   0.0433    210.8939    684.8484     2727.474      43.5214 -66.39     1.218     1.115      2.031     108.6279  19.4606         39
 3.50   0.0002    259.7588    997.4791     472654.8      43.5214 -48.81     2.331     2.263      1.609     108.6894  13.8636         40
 3.92   0.0127    223.9121   1226.0618     9278.108      43.5214  25.89     1.523     1.479      1.589     108.6525  18.1314         41
 4.86   0.0337    222.6267    774.9695     3505.857      43.5214  81.57     1.224     1.191      1.667     108.7263  19.1880         42
 3.50   0.0003    265.9002     67.6173     361659.2      43.5214 -49.31     2.268     2.237      1.604     108.6648  14.1543         43
 5.52   0.0172    243.9732    112.8913     6860.818      43.5214 -88.19     1.951     1.539      2.672     108.6771  18.4591         44
 4.81   0.0072    255.4885    613.0098     16377.05      43.5214 -41.01     2.436     2.028      2.690      108.714  17.5144         45
 6.52   0.0404    239.3535    838.8231     2921.204      43.5214  -5.84     1.203     1.102      2.332     108.7386  19.3861         46
 7.18   0.0393    250.5180    107.4840      2998.99      43.5214 -42.78     1.108     0.852      2.470     108.6402  19.3576         47
 3.50   0.0014    287.5196   1486.4733     85486.91      43.5214 -43.97     2.033     1.992      1.601     108.6525  15.7203         48
 3.66   0.0061    281.9236   1522.4003     19359.32      43.5214   3.77     1.701     1.668      1.579     108.7263  17.3328         49
 6.46   0.0487    270.7727   1273.6278     2424.472      43.5214  16.49     1.000     0.849      2.012     108.7386  19.5885         50
 3.50   0.0018    303.1506    201.7659      63942.2      43.5214 -78.11     1.968     1.942      1.592     108.7263  16.0355         51
 6.27   0.0313    293.2967   1475.8354      3767.48      43.5214 -33.66     1.250     1.086      2.124     108.6033  19.1099         52
 4.64   0.0315    302.2875    563.6751     3739.682      43.5214  31.81     1.325     1.283      1.765     108.6279  19.1179         53
 3.50   0.0028    322.0853    697.3419     42211.55      43.5214   1.78     1.882     1.848      1.584     108.6648  16.4864         54
 7.64   0.0468    308.7069     85.2985     2521.222      43.5214  45.78     0.969     0.767      2.534     108.6156  19.5460         55
 6.05   0.0284    321.9905    641.4783     4165.106      43.5214 -64.00     1.799     1.232      2.884     108.7386  19.0009         56
 5.16   0.0134    327.5369    595.4523     8822.632      43.5214 -52.10     1.728     1.694      2.314     108.6771  18.1860         57
 6.07   0.0750    329.2517   1546.0168     1574.798      43.5214 -87.78     0.913     0.756      1.549     108.7509  20.0569         58
 5.83   0.0542    332.2679     93.4347     2177.694      43.5214  20.40     0.992     0.948      1.654     108.7263  19.7050         59
 4.78   0.0256    350.1319     54.7084      4611.78      43.5214  -8.51     1.366     1.298      1.757     108.6402  18.8903         60
 3.50   0.0027    368.1670    761.1217     43940.57      43.5214 -26.12     1.940     1.871      1.597     108.7017  16.4428         61
 4.02   0.0145    361.1491   1500.4037     8148.107      43.5214 -15.08     1.586     1.464      1.682     108.7878  18.2724         62
 3.50   0.0006    395.2009    231.4691       210942      43.5214 -63.05     2.184     2.143      1.602     108.7632  14.7396         63
 5.78   0.0451    360.5269   1034.0070     2617.073      43.5214  -1.40     1.111     0.957      1.713     108.7632  19.5055         64
 6.91   0.0339    375.4792    754.0627      3482.49      43.5214  56.22     1.715     0.961      3.036     108.6402  19.1953         65
 7.68   0.0669    370.3091     71.9499     1764.755      43.5214 -10.89     0.743     0.672      1.958     108.6771  19.9333         66
 6.47   0.0534    373.4826   1083.8826     2210.605      43.5214 -17.84     1.100     0.990      2.209     108.6402  19.6887         67
 6.41   0.0417    380.6161      1.4882     2162.328      43.5214 -89.79     1.601     0.500      2.013     83.06795  19.7127         68
 3.50   0.0040    397.0519   1461.2017     29806.71      43.5214 -44.85     1.804     1.797      1.565     108.7878  16.8642         69
 3.50   0.0034    398.1799    354.6261     34754.34      43.5214 -13.53     1.890     1.844      1.623      108.714  16.6975         70
 8.09   0.1176    375.6552     87.2937     1003.068      43.5214  47.61     0.564     0.339      1.343     108.6525  20.5467         71
 6.71   0.0656    380.1594    125.8447     1801.031      43.5214  44.65     0.818     0.680      1.626     108.7386  19.9112         72
 4.22   0.0154    393.8183   1088.7736     7687.375      43.5214 -35.06     1.516     1.449      1.656     108.7263  18.3356         73
 8.89   0.0797    382.4900     67.5055      1480.39      43.5214 -44.69     0.503     0.497      1.789     108.6033  20.1241         74
 8.07   0.1506    388.6902   1195.3347     783.4807      43.5214  43.77     0.567     0.338      1.474     108.6771  20.8149         75
 6.14   0.0260    412.0432      1.7727     3538.415      43.5214  90.00     2.505     0.701      3.112     84.80453  19.1780         76
 7.90   0.0331    396.8768    626.5975     3562.007      43.5214 -73.71     1.239     0.985      3.196     108.7263  19.1708         77
 8.16   0.0541    403.6928    526.4366     2181.147      43.5214  81.17     1.023     0.476      2.294     108.6525  19.7033         78
 7.54   0.0856    407.0518    282.4902     1378.788      43.5214 -88.59     0.787     0.500      1.664     108.6771  20.2013         79
 3.50   0.0017    437.9478    252.1072     69371.29      43.5214 -87.21     2.006     1.974      1.605     108.6525  15.9471         80
 3.50   0.0002    461.0704    807.6703     575167.4      43.5214 -68.51     2.341     2.304      1.600      108.591  13.6505         81
 5.83   0.0255    420.9021    159.0900     4628.458      43.5214  37.62     1.694     1.421      2.599     108.6033  18.8864         82
 7.67   0.1247    419.5386   1580.4929     946.5688      43.5214  40.47     0.504     0.495      1.324     108.6525  20.6096         83
 4.17   0.0197    432.9492   1422.0629     5985.592      43.5214   6.85     1.427     1.396      1.638     108.6771  18.6072         84
 6.72   0.0454    426.5748   1179.2787      2599.09      43.5214  26.35     1.188     0.957      2.338      108.714  19.5129         85
 6.42   0.0011    426.8329    433.0970     104088.6      43.5214  -3.27     2.183     0.735      3.778     108.6279  15.5065         86
 5.15   0.0472    434.2586    151.1154     2500.575      43.5214 -20.05     1.138     1.034      1.624     108.6648  19.5549         87
 3.88   0.0052    450.3392     21.3603     22659.84      43.5214 -27.47     1.777     1.769      1.660     108.7263  17.1619         88
 5.07   0.0058    467.7993    850.4810     20203.98      43.5214  22.59     7.403     2.054      6.171     108.7263  17.2864         89
 9.05   0.0404    430.6650    719.3185     2921.044      43.5214  45.76     0.572     0.336      2.050     108.6279  19.3862         90
 4.48   0.0456    440.0043    305.8401     2589.004      43.5214  22.45     1.160     1.136      1.542     108.7263  19.5172         91
 5.42   0.0283    445.2589    122.3780     4176.409      43.5214 -23.52     1.401     1.309      2.096     108.7509  18.9980         92
 3.80   0.0046    457.8408     34.5939     25483.63      43.5214 -30.83     1.779     1.767      1.639     108.7386  17.0343         93
 8.05   0.1057    443.6886    655.3237     1115.942      43.5214  44.36     0.563     0.340      1.404     108.6156  20.4309         94
 4.32   0.0138    463.6414    468.6490     8581.789      43.5214  70.99     1.619     1.558      1.787     108.7509  18.2161         95
 6.24   0.0845    452.9206   1533.0249     1396.758      43.5214 -31.03     0.792     0.774      1.532      108.714  20.1872         96
 5.22   0.0426    460.9918   1096.1410     2773.713      43.5214  47.71     1.191     1.080      1.663     108.7878  19.4423         97
 4.60   0.0158    471.3581    254.2742     7454.021      43.5214 -79.51     1.510     1.439      1.765     108.6894  18.3690         98
 4.03   0.0114    472.1380    734.9207     10317.69      43.5214  75.27     1.566     1.511      1.610     108.6402  18.0160         99
 7.71   0.0543    461.8358    724.7247     2175.529      43.5214 -20.12     0.949     0.683      2.208     108.6894  19.7061        100
 3.70   0.0090    477.9271    923.0840     13054.21      43.5214 -28.67     1.679     1.612      1.585     108.6402  17.7606        101
 4.34   0.0233    477.2791   1276.4363     5074.219      43.5214 -44.53     1.334     0.920      1.712     108.6894  18.7866        102
 5.84   0.0335    488.9431    839.6031     3531.223      43.5214  87.10     2.059     0.959      2.755     108.7878  19.1802        103
 4.14   0.0204    484.0388   1070.6680       5799.5      43.5214 -80.82     1.429     1.400      1.657      108.714  18.6415        104
 7.10   0.1058    475.9789   1168.4807     1116.284      43.5214  89.68     0.781     0.500      1.513     108.7263  20.4306        105
 5.40   0.0114    496.2654     82.9187     10306.29      43.5214  66.13     2.311     2.046      3.319     108.6279  18.0172        106
 6.87   0.0686    478.8629    682.8434     1719.699      43.5214 -46.10     0.819     0.679      1.694     108.6894  19.9614        107
 5.12   0.0118    495.7248   1186.8407     10020.57      43.5214 -15.71     2.996     1.931      3.608     108.6894  18.0478        108
 5.26   0.0195    504.0796    762.8668     6057.908      43.5214 -10.71     1.688     1.646      2.649     108.6279  18.5942        109
 4.77   0.0335    502.0138    863.8067     3524.231      43.5214  64.62     1.201     1.192      1.651     108.6525  19.1823        110
 4.57   0.0095    515.3623   1461.0657     12419.81      43.5214  23.93     4.115     1.649      3.683     108.7263  17.8147        111
 6.08   0.0768    498.0054    366.2516     1537.606      43.5214   0.37     0.926     0.749      1.576     108.7878  20.0829        112
 6.08   0.0324    509.9191    164.8152     3648.296      43.5214  -5.95     1.820     1.073      2.540     108.7386  19.1448        113
 4.83   0.0320    513.8598   1179.1876     3687.888      43.5214  24.06     1.285     1.178      1.672     108.7386  19.1331        114
 5.52   0.0440    519.1540    641.9484     2682.438      43.5214  22.36     1.200     1.120      1.943     108.7632  19.4787        115
 6.45   0.1024    518.1915   1519.1722     1153.122      43.5214  45.74     0.761     0.567      1.516     108.7263  20.3953        116
 4.09   0.0148    540.2067    999.9378     7973.418      43.5214  61.15     1.534     1.490      1.673     108.7755  18.2959        117
 6.53   0.0588    536.3547    404.5305     2007.582      43.5214  38.93     1.195     0.786      2.098     108.6771  19.7933        118
 3.90   0.0109    558.9035   1041.7982      10801.4      43.5214   6.20     1.633     1.563      1.641     108.7017  17.9663        119
 4.74   0.0148    571.3472     45.9143     7958.542      43.5214  46.17     2.084     1.522      2.365     108.6525  18.2979        120
 5.98   0.1426    555.8228    778.8107     827.7271      43.5214  44.57     0.756     0.567      1.369     108.7017  20.7553        121
 3.50   0.0028    580.7163    144.9663     41460.89      43.5214  83.47     1.885     1.868      1.594      108.714  16.5059        122
 4.85   0.0158    571.3085   1447.7944     7446.272      43.5214  19.43     2.258     1.637      2.889     108.6648  18.3702        123
 5.88   0.0516    565.0881    139.5546      2286.64      43.5214 -69.74     1.052     0.977      1.756     108.6648  19.6520        124
 3.50   0.0028    582.1971    319.2584     42123.17      43.5214   7.31     1.887     1.830      1.601     108.7878  16.4887        125
 4.29   0.0053    596.7602    782.6867     22361.29      43.5214 -62.08     3.302     3.182      3.910     108.7017  17.1763        126
 5.97   0.0434    576.2225   1001.8235     2718.086      43.5214  40.80     1.216     1.076      2.181     108.7263  19.4643        127
 4.64   0.0381    584.5398     76.0209     3098.339      43.5214  -0.84     1.205     1.138      1.635     108.7509  19.3222        128
 4.19   0.0228   1001.5298   1555.4829     5174.775      43.5214  54.97     1.346     1.330      1.608     108.6279  18.7653        129
 4.71   0.0253   1597.6036    654.7847     4015.814      43.5214   1.75     1.659     1.434      2.332     93.47559  19.0406        130
 5.16   0.0442   1594.7568    374.1190     2578.833      43.5214  42.74     1.307     1.027      1.880     105.0354  19.5214        131
 4.05   0.0204   1584.9181   1108.9316      5776.97      43.5214 -15.59     1.433     1.357      1.587     108.6525  18.6457        132
 6.78   0.1154   1585.9497   1069.5099     1022.354      43.5214 -88.96     0.783     0.500      1.376     108.6648  20.5260        133
 3.60   0.0078   1541.8564    135.1745     15154.85      43.5214  54.68     1.663     1.623      1.592     108.7386  17.5986        134
 8.74   0.1053   1519.3268     85.3294     1119.966      43.5214 -44.88     0.573     0.336      1.705     108.6156  20.4270        135
 4.79   0.0689   1514.6519    483.6263     1715.034      43.5214 -43.74     1.049     0.951      1.504     108.7509  19.9643        136
 4.90   0.0650    912.4185   1001.2366     1815.914      43.5214  73.44     0.989     0.957      1.551     108.7386  19.9023        137
 3.50   0.0042    900.4997    302.8331     28222.18      43.5214 -64.19     1.794     1.787      1.630     108.6033  16.9235        138
