#   1 KRON_RADIUS            Kron apertures in units of A or B                         
#   2 MAGERR_APER            RMS error vector for fixed aperture mag.                   [mag]
#   3 Y_IMAGE                Object position along y                                    [pixel]
#   4 X_IMAGE                Object position along x                                    [pixel]
#   5 THETA_IMAGE            Position angle (CCW/x)                                     [deg]
#   6 FLUX_APER              Flux vector within fixed circular aperture(s)              [count]
#   7 A_IMAGE                Profile RMS along major axis                               [pixel]
#   8 THRESHOLD              Detection threshold above background                       [count]
#   9 B_IMAGE                Profile RMS along minor axis                               [pixel]
#  10 FLUX_RADIUS            Fraction-of-light radii                                    [pixel]
#  11 FLUXERR_APER           RMS error vector for aperture flux(es)                     [count]
#  12 MAG_APER               Fixed aperture magnitude vector                            [mag]
#  13 NUMBER                 Running object number                                     
 4.20   0.0009     52.3034     61.8495   2.51     146901.5     4.442     65.14034     3.989      9.913     115.5609  15.1324          1
 3.77   0.0051     15.6711    983.4545 -87.99     24595.03     3.861     65.14034     1.647      6.766     115.6526  17.0729          2
 3.62   0.0064     17.0230     89.4899 -26.39     19723.87     1.422     65.14034     1.344      3.137     115.6919  17.3125          3
 3.50   0.0026     13.8104   1444.2446 -29.34     49015.25     1.547     65.14034     1.516      3.078     115.7312  16.3242          4
 9.00   0.0520      3.3280    143.3375 -44.59     2072.385     0.577     65.14034     0.334      2.891     99.13581  19.7588          5
 5.36   0.0455     16.2085    382.9816  89.06     2759.007     0.890     65.14034     0.752      3.160     115.6788  19.4481          6
 4.66   0.0277     23.7973    365.4003 -84.17     4530.537     1.089     65.14034     1.032      3.214     115.7312  18.9096          7
 8.20   0.0599     23.2996    381.3436 -42.82     2094.172     0.566     65.14034     0.338      2.803      115.574  19.7475          8
 3.50   0.0006     58.9551   1076.9459  70.23     215422.4     1.898     65.14034     1.774      3.239      115.705  14.7168          9
 6.03   0.0459     33.4796   1108.6080  64.27      2737.46     1.510     65.14034     0.629      4.085      115.705  19.4566         10
 7.91   0.0619     32.4033    324.8148 -18.96     2027.921     0.755     65.14034     0.449      3.410     115.6788  19.7824         11
 5.58   0.1052     37.0213   1519.9889  21.84     1194.485     0.611     65.14034     0.611      2.706     115.6788  20.3570         12
 6.31   0.0721     38.1393   1169.1509  44.59      1742.83     0.749     65.14034     0.572      3.306     115.6788  19.9469         13
 6.16   0.0780     41.5179    913.9079  -0.91     1611.038     0.771     65.14034     0.500      2.638     115.6526  20.0322         14
 3.50   0.0006     79.0638    535.8656 -71.09     208287.2     1.799     65.14034     1.767      3.205     115.6395  14.7533         15
 3.76   0.0150     74.1700    126.4531 -28.84     8388.309     1.258     65.14034     1.182      3.027     115.7312  18.2408         16
 6.21   0.0500     81.4861    419.7835 -89.81     2514.552     0.968     65.14034     0.724      3.712      115.705  19.5488         17
 6.69   0.0251     89.5848    375.0995 -11.54     5013.294     1.320     65.14034     1.036      5.207     115.6788  18.7997         18
 3.50   0.0004    120.9212    787.5002 -59.71       305713     1.833     65.14034     1.825      3.223      115.574  14.3367         19
 3.94   0.0103     95.6125     54.3898 -38.35     12141.71     1.297     65.14034     1.241      3.149     115.6657  17.8393         20
 6.66   0.0855     90.6038    494.2029 -18.24     1468.827     0.728     65.14034     0.456      2.778     115.6788  20.1326         21
 6.22   0.0386     97.0223    451.4500  -4.42     3252.156     1.053     65.14034     0.780      3.974     115.7312  19.2696         22
 6.76   0.0857    130.4583    416.4763  21.10     1465.727     0.500     65.14034     0.498      2.475     115.6657  20.1349         23
 3.50   0.0007    161.4535   1466.8450 -66.04     174892.9     1.744     65.14034     1.727      3.182      115.705  14.9431         24
 3.50   0.0030    169.3001    875.6627 -39.94     41496.25     1.534     65.14034     1.515      3.077     115.6395  16.5050         25
 4.65   0.0303    164.1470   1444.2490 -65.13     4147.773     1.073     65.14034     0.995      3.294      115.705  19.0055         26
 3.90   0.0444    165.6745    102.5966 -41.51     2833.412     1.017     65.14034     0.920      2.724     115.7704  19.4192         27
 7.35   0.0803    168.4966   1367.4883  45.85      1562.78     0.502     65.14034     0.498      2.741      115.574  20.0653         28
 7.70   0.0465    185.9798   1353.4911 -89.21     2703.315     0.796     65.14034     0.500      3.849     115.6657  19.4703         29
 4.74   0.0239    191.8871   1349.0082   9.23       5261.6     1.093     65.14034     1.083      3.453      115.705  18.7472         30
 4.97   0.0068    209.7816    825.9514  -7.57     18421.17     3.145     65.14034     1.693      7.953     115.7181  17.3867         31
 3.71   0.0145    205.7242    547.4327 -27.80     8678.108     1.268     65.14034     1.220      3.025     115.6788  18.2039         32
 3.65   0.0144    211.4296   1304.5750 -26.27     8704.974     1.248     65.14034     1.242      2.979     115.7181  18.2006         33
 5.99   0.0442    209.9860    683.0103 -88.12     2841.001     1.026     65.14034     0.734      3.488     115.6657  19.4163         34
 5.59   0.0078    229.1618    560.4160 -36.10     16097.67     2.830     65.14034     2.521      9.060     115.7443  17.5331         35
 3.56   0.0127    223.3353   1224.5809 -36.23     9897.648     1.273     65.14034     1.233      3.013     115.7312  18.0612         36
 3.50   0.0002    258.9106    995.8257 -71.98     522814.9     1.918     65.14034     1.899      3.260     115.6788  13.7541         37
 4.31   0.0350    221.5924    773.3193 -14.50     3589.747     1.060     65.14034     0.974      3.012      115.705  19.1623         38
 3.50   0.0003    264.9516     65.7890 -57.20     392176.9     1.875     65.14034     1.852      3.230     115.7574  14.0663         39
 5.57   0.0173    243.0064    111.0418 -88.92     7250.586     1.582     65.14034     1.198      5.076     115.7312  18.3991         40
 6.43   0.0414    238.3742    837.2224 -31.21     3038.723     1.016     65.14034     0.916      4.207     115.7312  19.3433         41
 4.83   0.0072    254.5080    611.2502 -38.55     17480.54     2.022     65.14034     1.655      5.461     115.6526  17.4436         42
 6.33   0.0365    249.4847    105.5596 -21.18     3443.074     0.902     65.14034     0.882      4.490     115.6919  19.2076         43
 3.50   0.0013    286.7240   1485.0078 -63.00      93584.4     1.644     65.14034     1.627      3.176     115.7443  15.6220         44
 6.27   0.0517    269.9772   1271.9922  -1.56     2429.587     0.789     65.14034     0.784      3.387     115.6919  19.5862         45
 3.50   0.0059    281.0651   1520.9044 -20.69     21213.14     1.367     65.14034     1.351      2.999     115.6526  17.2335         46
 3.50   0.0018    302.1579    199.9657 -33.04     70556.55     1.618     65.14034     1.605      3.116     115.7574  15.9287         47
 5.49   0.0257    292.5531   1474.0583  -1.34     4885.525     1.049     65.14034     0.933      4.055     115.6919  18.8277         48
 4.42   0.0320    301.2180    561.9072  18.86     3921.757     1.129     65.14034     1.058      3.215     115.6919  19.0663         49
 3.50   0.0027    321.1726    695.6197 -26.26     47187.93     1.553     65.14034     1.509      3.045      115.705  16.3654         50
 7.87   0.0470    307.7152     83.4339  80.94     2675.156     1.003     65.14034     0.476      4.160      115.705  19.4816         51
 6.17   0.0292    321.0647    639.6444 -67.67     4300.549     1.609     65.14034     0.861      4.798     115.6919  18.9662         52
 4.98   0.0134    326.5730    593.8109   7.14     9383.797     1.495     65.14034     1.367      4.591     115.7181  18.1191         53
 5.80   0.0763    328.6497   1544.8694  10.60     1645.171     0.732     65.14034     0.651      2.785     115.6395  20.0095         54
 4.93   0.0556    331.1288     91.6019 -14.07     2261.623     0.974     65.14034     0.736      2.836     115.7574  19.6639         55
 4.17   0.0260    349.0255     52.9406 -34.32     4840.496     1.109     65.14034     1.089      3.161     115.7443  18.8378         56
 3.50   0.0026    367.2481    759.5090  -9.25     48753.61     1.555     65.14034     1.529      3.080     115.6264  16.3300         57
 3.89   0.0146    360.4133   1498.9653  13.98     8621.109     1.270     65.14034     1.201      3.119     115.7443  18.2111         58
 4.06   0.0470    359.7190   1032.4745   1.63     2670.486     0.960     65.14034     0.930      2.761     115.6395  19.4835         59
 3.50   0.0005    394.2187    229.6441 -68.12       231327     1.801     65.14034     1.777      3.176     115.7312  14.6394         60
 6.64   0.0277    374.3668    752.0930  47.82      4527.11     1.482     65.14034     0.696      4.812     115.6395  18.9104         61
 8.25   0.0670    369.4944     69.5316 -56.01      1875.15     0.501     65.14034     0.498      3.005     115.6526  19.8674         62
 6.81   0.0552    372.6188   1082.2681 -17.95     2277.644     0.948     65.14034     0.637      3.546     115.7443  19.6563         63
 7.60   0.1238    374.3250     85.3358 -44.52     1013.897     0.575     65.14034     0.335      2.353     115.6264  20.5350         64
 5.83   0.0701    379.2894    123.9578  -3.94     1791.445     0.729     65.14034     0.671      2.836     115.6657  19.9170         65
 3.50   0.0037    396.2292   1459.7554 -36.91     33616.86     1.475     65.14034     1.464      3.065     115.7704  16.7336         66
 3.50   0.0032    397.1713    352.8766 -25.80     39118.75     1.525     65.14034     1.501      3.130     115.6919  16.5690         67
 3.66   0.0155    392.8804   1087.1648  -9.50     8116.983     1.239     65.14034     1.206      3.009     115.6919  18.2765         68
 7.81   0.0324    395.9946    624.9952  71.33      3875.46     0.799     65.14034     0.798      4.797     115.6526  19.0792         69
 7.27   0.0892    406.4605    280.4913 -17.59      1407.47     0.500     65.14034     0.498      2.712     115.6395  20.1789         70
 5.30   0.0263    419.8942    157.4371  26.75     4775.929     1.448     65.14034     1.193      4.507     115.6133  18.8524         71
 3.50   0.0016    437.0088    250.3023 -32.19     76346.98     1.624     65.14034     1.615      3.124     115.6526  15.8430         72
 3.50   0.0002    460.3148    806.0232 -65.11     629177.5     1.935     65.14034     1.920      3.271     115.6919  13.5531         73
 7.45   0.0471    425.8697   1178.0779  43.77     2663.562     0.858     65.14034     0.661      4.172     115.6133  19.4863         74
 3.69   0.0202    432.1023   1420.5601 -11.63     6203.122     1.208     65.14034     1.109      2.854     115.6133  18.5685         75
 4.94   0.0492    433.1256    149.3873  -9.79     2553.157     0.981     65.14034     0.856      2.949     115.7704  19.5323         76
 4.38   0.0463    439.0159    303.9682 -20.07      2712.16     0.920     65.14034     0.913      2.619     115.7312  19.4667         77
 5.20   0.0058    466.9002    848.8165  22.61     21638.93     6.820     65.14034     1.769     13.885     115.6657  17.2119         78
 3.54   0.0051    449.4023     19.5231 -30.68     24766.82     1.437     65.14034     1.406      3.075     115.7181  17.0653         79
 5.15   0.0288    444.2394    120.4318 -22.01     4359.355     1.210     65.14034     1.108      3.707     115.7443  18.9514         80
 3.50   0.0045    456.8024     32.7392  -3.30     27693.77     1.443     65.14034     1.422      3.068     115.7835  16.9440         81
 7.16   0.1146    442.5621    653.4972 -10.91     1095.434     0.500     65.14034     0.496      2.566     115.6002  20.4510         82
 5.48   0.0917    452.0169   1531.7256 -85.78     1371.644     0.721     65.14034     0.674      2.620     115.7835  20.2069         83
 3.99   0.0138    462.7450    466.8865  54.88      9071.79     1.308     65.14034     1.243      3.195     115.6395  18.1558         84
 4.66   0.0429    460.2122   1094.6180   6.35     2930.475     0.975     65.14034     0.925      3.039     115.6788  19.3827         85
 3.62   0.0113    471.1317    733.2081  79.83     11151.76     1.283     65.14034     1.279      2.973     115.7704  17.9316         86
 4.08   0.0159    470.3870    252.5030   5.65     7905.039     1.263     65.14034     1.233      3.236     115.6657  18.3052         87
 8.39   0.0570    460.5989    723.2239 -18.39     2205.465     0.756     65.14034     0.451      3.721     115.6919  19.6912         88
 3.50   0.0089    477.0223    921.4086 -70.99     14111.74     1.335     65.14034     1.318      3.017      115.705  17.6760         89
 3.88   0.0238    477.0480   1275.3263 -57.55     5266.625     1.145     65.14034     1.027      2.892     115.6526  18.7462         90
 7.61   0.1114    475.3035   1166.6748  43.83     1127.472     0.561     65.14034     0.342      2.351     115.6395  20.4197         91
 6.22   0.0343    487.6810    837.9964 -83.71     3665.329     1.704     65.14034     0.715      4.877     115.7181  19.1397         92
 3.69   0.0208    483.0464   1069.0927 -24.30     6034.434     1.130     65.14034     1.125      2.889     115.6133  18.5984         93
 6.02   0.0731    477.7341    681.0251  -3.82     1719.388     0.725     65.14034     0.675      3.077     115.7181  19.9616         94
 5.29   0.0115    495.1190     81.1906  45.43     10893.79     2.066     65.14034     1.767      6.307     115.6919  17.9571         95
 5.45   0.0119    494.7936   1185.2228 -14.10     10525.08     2.599     65.14034     1.517      6.594      115.705  17.9944         96
 5.72   0.0194    503.3142    761.2948 -38.41     6466.824     1.466     65.14034     1.337      5.078      115.574  18.5233         97
 4.13   0.0330    501.1669    862.1559 -43.76      3813.15     1.112     65.14034     1.006      2.859     115.7574  19.0968         98
 5.64   0.0805    497.0226    364.6823 -87.03     1560.756     0.730     65.14034     0.667      2.683      115.705  20.0667         99
 4.77   0.0096    514.4293   1459.5134  23.73     13104.83     3.563     65.14034     1.308      7.511      115.705  17.7564        100
 5.66   0.0332    508.9268    163.3875  -3.75     3792.806     1.654     65.14034     0.787      4.445     115.7835  19.1026        101
 4.26   0.0325    512.8962   1177.7278 -61.45     3869.874     1.075     65.14034     0.992      3.092     115.6395  19.0808        102
 5.41   0.0450    518.3445    640.3340 -41.64     2793.466     1.060     65.14034     0.951      3.512     115.6657  19.4346        103
 6.49   0.1122    517.4171   1517.7679 -18.84     1120.366     0.723     65.14034     0.459      2.463     115.7312  20.4266        104
 3.72   0.0147    539.3714    998.3492 -26.35      8551.01     1.257     65.14034     1.218      2.988     115.7443  18.2200        105
 6.75   0.0601    535.1268    402.7053  21.93     2089.184     0.939     65.14034     0.684      3.472     115.6526  19.7501        106
 3.70   0.0110    558.0494   1040.1455  18.85     11449.25     1.313     65.14034     1.296      3.105     115.7181  17.9031        107
 6.44   0.1552    554.9899    777.2524  89.44     809.8476     0.670     65.14034     0.434      2.350     115.7704  20.7790        108
 4.62   0.0149    570.3089     44.1189  51.69     8413.617     1.845     65.14034     1.271      4.429     115.6395  18.2375        109
 3.50   0.0027    579.6545    143.1783 -44.32     46612.31     1.563     65.14034     1.533      3.080     115.7574  16.3787        110
 5.36   0.0155    570.5286   1446.4730  17.88     8092.545     1.856     65.14034     1.391      5.464     115.6002  18.2798        111
 3.50   0.0027    581.2003    317.4489 -12.26     46499.95     1.570     65.14034     1.539      3.073     115.7835  16.3814        112
 5.79   0.0533    563.8646    137.6890 -21.27     2354.591     0.892     65.14034     0.686      2.956     115.6526  19.6202        113
 4.69   0.0053    595.7537    780.8385 -56.47     23811.42     3.023     65.14034     2.605      7.897     115.7312  17.1080        114
 6.19   0.0443    575.3632   1000.3189  45.20     2839.331     1.005     65.14034     0.886      3.953     115.6919  19.4170        115
 4.45   0.0392    583.4443     74.1731 -17.03      3207.33     1.094     65.14034     0.938      2.965     115.7704  19.2846        116
 3.75   0.0094   1000.7644    540.9913  -8.94     13374.81     1.362     65.14034     1.329      3.167     115.7312  17.7343        117
 7.83   0.0849   1599.7003     17.3366  43.09     1114.172     0.564     65.14034     0.340      2.963     87.14998  20.4326        118
 5.25   0.0267   1596.6635    653.0926 -59.61       4241.9     1.485     65.14034     1.346      4.077      104.187  18.9811        119
 5.50   0.0455   1593.6263    372.3974  44.56     2741.414     1.077     65.14034     0.932      3.426     114.8904  19.4551        120
 8.20   0.1360   1592.4907   1383.5098 -45.05     923.1545     0.502     65.14034     0.498      2.890     115.5871  20.6368        121
 7.32   0.2352   1590.3160    565.3229 -44.66     533.9938     0.565     65.14034     0.340      2.133     115.6264  21.2312        122
 6.48   0.1258   1584.9933   1068.0237   1.49     998.4835     0.615     65.14034     0.610      2.506      115.705  20.5516        123
 3.50   0.0077   1540.7362    133.3148 -47.70     16242.96     1.408     65.14034     1.367      3.029     115.6395  17.5233        124
 3.50   0.0009   1506.1389    267.6415 -39.96     146598.2     1.723     65.14034     1.706      3.130      115.705  15.1347        125
 4.58   0.0666   1064.9565   1595.7683  -2.91     1764.474     0.881     65.14034     0.748      2.710     108.1394  19.9335        126
 5.63   0.0259    979.9975    796.2272 -68.28       4859.6     1.224     65.14034     1.180      4.196     115.6919  18.8335        127
 6.39   0.0403    977.0343    451.0101 -40.67      3119.94     0.784     65.14034     0.775      3.749     115.7443  19.3146        128
 5.05   0.0578    964.0334    414.7816   0.25     2174.544     0.891     65.14034     0.748      2.636     115.7312  19.7066        129
 6.12   0.0318    949.9987    652.6572 -89.85     3949.793     1.224     65.14034     0.992      4.240     115.7966  19.0586        130
 5.24   0.0691    946.8032    443.5172  -1.66      1817.82     0.923     65.14034     0.719      2.697      115.705  19.9011        131
 3.69   0.0139    938.3217   1065.6394  41.58     9052.779     1.248     65.14034     1.193      2.925     115.6657  18.1580        132
 7.35   0.0365    937.5718    514.6093  47.45     3441.812     1.032     65.14034     0.878      5.255     115.7181  19.2080        133
 4.11   0.0255    927.3743   1321.0085 -85.38     4922.248     1.159     65.14034     1.128      3.110     115.7181  18.8196        134
 3.57   0.0336    911.8421    836.9899  38.07     3744.308     1.095     65.14034     1.086      2.687     115.7312  19.1166        135
 4.50   0.0668    911.3700    999.6253 -45.17     1881.334     0.962     65.14034     0.860      2.686      115.705  19.8638        136
 3.50   0.0041    899.4661    301.0907 -18.69     30636.67     1.479     65.14034     1.444      3.085     115.6657  16.8344        137
 4.85   0.0172    895.2223    536.8345   2.48     7321.221     1.747     65.14034     1.407      4.631     115.7181  18.3885        138
