#   1 KRON_RADIUS            Kron apertures in units of A or B                         
#   2 MAGERR_APER            RMS error vector for fixed aperture mag.                   [mag]
#   3 Y_IMAGE                Object position along y                                    [pixel]
#   4 X_IMAGE                Object position along x                                    [pixel]
#   5 THETA_IMAGE            Position angle (CCW/x)                                     [deg]
#   6 FLUX_APER              Flux vector within fixed circular aperture(s)              [count]
#   7 A_IMAGE                Profile RMS along major axis                               [pixel]
#   8 THRESHOLD              Detection threshold above background                       [count]
#   9 B_IMAGE                Profile RMS along minor axis                               [pixel]
#  10 FLUX_RADIUS            Fraction-of-light radii                                    [pixel]
#  11 FLUXERR_APER           RMS error vector for aperture flux(es)                     [count]
#  12 MAG_APER               Fixed aperture magnitude vector                            [mag]
#  13 NUMBER                 Running object number                                     
 4.27   0.0006     53.2285     63.7742  -2.74     152012.7     4.404           15     4.007      9.679     83.63097  15.0953          1
 4.33   0.0036     16.3044    985.0226 -87.82     24990.42     3.688           15     1.825      6.742     83.60258  17.0556          2
 4.07   0.0045     18.0125     91.3880 -63.52     20378.29     1.651           15     1.570      2.821     83.60258  17.2771          3
 3.50   0.0017     14.6138   1445.7917 -52.45     52871.64     1.870           15     1.806      2.785     83.57419  16.2419          4
 7.08   0.0346     17.0088    384.7113 -85.01     2622.566     0.733           15     0.676      2.761     83.62151  19.5032          5
 5.18   0.0206     24.6807    367.1530 -22.26     4406.281     1.213           15     1.050      2.956     83.58366  18.9398          6
 3.50   0.0004     59.7943   1078.5426  78.54     241687.9     2.290           15     2.178      2.971     83.67826  14.5919          7
 3.50   0.0004     80.1343    537.6766 -39.94     231874.9     2.198           15     2.143      2.858     83.54578  14.6369          8
 4.41   0.0108     75.0783    128.1779 -45.31     8403.124     1.483           15     1.375      2.699     83.63097  18.2389          9
 3.50   0.0003    121.8205    789.2079 -57.78     344549.4     2.257           15     2.200      2.890     83.60258  14.2069         10
 4.36   0.0071     96.6213     56.2591 -27.79     12724.41     1.550           15     1.496      2.921     83.64989  17.7884         11
 8.72   0.0421     82.3262    421.3430 -44.29     2154.822     0.578           15     0.333      2.746     83.58366  19.7165         12
 8.98   0.0195     90.5028    376.9697   0.25     4642.826     0.809           15     0.500      4.054     83.56472  18.8830         13
 7.62   0.0307     97.9985    452.9957 -44.10      2958.93     0.897           15     0.535      3.395     83.60258  19.3722         14
 3.50   0.0005    162.2912   1468.3754 -61.62     195274.1     2.138           15     2.082      2.891     83.60258  14.8234         15
 3.61   0.0021    170.2583    877.3432 -57.04      43933.3     1.850           15     1.787      2.827     83.58366  16.4430         16
 5.67   0.0229    164.8608   1445.7177 -66.82     3957.627     1.143           15     1.020      3.001     83.56472  19.0564         17
 5.49   0.0344    166.7144    104.4765 -15.27     2633.969     0.997           15     0.941      2.370     83.54578  19.4985         18
 5.91   0.0164    192.5169   1350.5178 -61.72      5523.06     1.214           15     1.196      4.364     83.55525  18.6945         19
 4.19   0.0099    206.7009    549.1866 -29.35     9126.967     1.425           15     1.358      2.667     83.58366  18.1492         20
 5.62   0.0048    210.5408    827.6758  -5.63      18939.5     2.735           15     1.779      7.772     83.59312  17.3566         21
 4.37   0.0100    212.1142   1306.1636 -54.87     9061.049     1.451           15     1.360      2.714     83.61205  18.1571         22
 6.08   0.0055    229.6508    562.2986 -10.00     16472.96     2.622           15     2.362      8.805      83.5079  17.5081         23
 7.67   0.0336    210.7098    684.9471   5.90     2704.541     0.739           15     0.683      3.223     83.57419  19.4698         24
 4.03   0.0087    223.9435   1226.1060 -71.74     10396.02     1.479           15     1.414      2.653     83.57419  18.0078         25
 3.50   0.0002    259.7716    997.4949 -49.16     597378.1     2.375           15     2.315      2.923     83.58366  13.6094         26
 5.81   0.0256    222.4698    774.9534  -2.23     3548.059     1.090           15     0.945      2.544     83.60258  19.1750         27
 3.50   0.0002    265.9278     67.6582 -37.18     441293.7     2.300           15     2.264      2.855     83.58366  13.9382         28
 6.71   0.0126    243.7849    112.9405 -80.90     7191.255     1.516           15     1.209      5.902     83.62151  18.4080         29
 5.13   0.0051    255.2897    613.0684 -43.66      17890.6     2.125           15     1.773      5.419     83.56472  17.4184         30
 7.97   0.0308    239.1856    838.8074 -44.52     2949.702     0.763           15     0.567      3.651     83.57419  19.3756         31
 8.32   0.0278    250.4927    107.4911 -45.11     3261.676     0.503           15     0.497      2.782     83.53632  19.2664         32
 3.50   0.0009    287.5205   1486.5184 -58.45     104258.8     2.006           15     1.960      2.871     83.57419  15.5047         33
 3.71   0.0039    281.8881   1522.3986 -84.82     23023.98     1.660           15     1.609      2.773     83.61205  17.1445         34
 8.88   0.0390    270.5084   1273.4916 -45.00     2322.985     0.505           15     0.495      3.030     83.52684  19.6349         35
 3.50   0.0012    303.1597    201.8013 -20.33     76324.77     1.942           15     1.887      2.780     83.64043  15.8433         36
 6.79   0.0204    293.4639   1475.6927 -55.59     4457.947     0.984           15     0.950      3.958     83.59312  18.9272         37
 5.55   0.0219    302.2210    563.7106  19.09     4154.427     1.074           15     1.044      2.883     83.60258  19.0037         38
 3.50   0.0018    322.0659    697.3301 -38.79     50678.42     1.840           15     1.788      2.748     83.57419  16.2879         39
 5.47   0.0093    327.3771    595.5006  -6.78     9790.266     1.606           15     1.439      4.497     83.56472  18.0730         40
 9.85   0.0212    321.5020    641.5054 -45.19     4288.882     0.502           15     0.498      3.012     83.52684  18.9691         41
 7.23   0.0558    329.2394   1545.9945   0.27      1627.33     0.683           15     0.427      2.431     83.63097  20.0213         42
 6.34   0.0416    332.1343     93.3228 -20.74     2179.358     0.903           15     0.689      2.471     83.54578  19.7042         43
 4.96   0.0188    350.0178     54.7950 -29.90     4838.138     1.208           15     1.168      2.790     83.60258  18.8383         44
 3.71   0.0017    368.1374    761.1620 -36.50     52433.89     1.861           15     1.810      2.797     83.62151  16.2510         45
 4.32   0.0097    361.1077   1500.4562 -89.12     9350.693     1.472           15     1.387      2.924     83.57419  18.1229         46
 5.59   0.0403    360.2700   1033.9875 -89.56     2252.234     0.911           15     0.754      2.456     83.67826  19.6685         47
 3.50   0.0004    395.2099    231.5074 -46.89     256531.2     2.198           15     2.142      2.862     83.60258  14.5271         48
 6.91   0.1053    380.7730      1.4245 -85.27     655.7358     1.270           15     0.485      4.427     63.60941  21.0082         49
 3.52   0.0022    398.1901    354.6606 -50.94     41608.77     1.806           15     1.749      2.751     83.66881  16.5020         50
 3.51   0.0025    397.0133   1461.2390 -54.40     36498.06     1.754           15     1.693      2.769     83.64989  16.6443         51
 4.33   0.0105    393.6656   1088.6307 -83.95     8610.543     1.339           15     1.309      2.749     83.62151  18.2124         52
 7.19   0.0592    412.0781      1.4993 -89.95     1172.383     1.912           15     0.500      5.244     63.85769  20.3773         53
 3.50   0.0011    437.9597    252.1309 -26.57     83650.93     1.982           15     1.933      2.786     83.62151  15.7438         54
 3.50   0.0001    461.1037    807.6888 -48.66     724669.6     2.396           15     2.330      2.913     83.52684  13.3996         55
 6.51   0.0184    420.8617    159.1614  44.08     4942.099     1.258           15     1.071      4.214     83.62151  18.8152         56
 4.59   0.0139    432.8108   1422.1188  88.02     6512.701     1.295           15     1.230      2.752     83.64043  18.5156         57
 7.75   0.0006    426.5462    432.7873  -2.62     150689.2     1.567           15     0.493      4.283     83.65935  15.1048         58
 6.12   0.0347    434.0167    151.0135 -28.97     2615.405     0.789           15     0.781      2.732     83.62151  19.5062         59
 3.88   0.0034    450.3694     21.3889 -15.23     26522.44     1.705           15     1.651      2.788     83.64989  16.9910         60
 3.82   0.0030    457.8665     34.6008 -24.79     29856.79     1.751           15     1.664      2.797     83.66881  16.8624         61
 6.19   0.0203    445.1345    122.2004 -43.52     4478.458     1.230           15     1.050      3.600     83.67826  18.9222         62
 6.02   0.0330    439.9788    305.5764  -2.57     2750.761     1.027           15     0.784      2.566     83.64043  19.4514         63
 5.49   0.0041    467.4917    850.3239  22.50     22253.96     5.904           15     1.818     13.654     83.56472  17.1815         64
 4.46   0.0095    463.7177    468.7029  23.51     9503.758     1.437           15     1.374      2.888     83.53632  18.1053         65
 7.83   0.0682    452.6775   1533.3118  45.56      1331.28     0.563           15     0.341      2.196     83.54578  20.2393         66
 5.56   0.0307    460.7216   1096.3547 -44.09     2952.636     1.008           15     0.872      2.686     83.58366  19.3745         67
 4.21   0.0077    472.0145    734.9021 -41.74      11782.4     1.509           15     1.427      2.731     83.59312  17.8719         68
 4.67   0.0110    471.4069    254.3637 -14.93     8267.437     1.360           15     1.318      2.885     83.63097  18.2566         69
 3.98   0.0060    477.9256    923.0577 -73.05     15091.82     1.536           15     1.478      2.670     83.58366  17.6031         70
 4.94   0.0160    477.4364   1276.4424 -46.13     5676.583     1.083           15     0.882      2.923     83.64989  18.6648         71
 4.57   0.0146    483.9413   1070.6448 -26.83     6210.652     1.320           15     1.216      2.572     83.60258  18.5672         72
 5.86   0.0080    495.8116     83.2151  54.41     11395.93     1.947           15     1.697      6.020     83.61205  17.9081         73
 6.14   0.0084    495.3471   1186.9773 -14.84     10785.69     2.239           15     1.528      6.646     83.66881  17.9679         74
 9.27   0.0255    488.4953    839.5061  45.05     3553.567     0.505           15     0.495      3.029     83.52684  19.1733         75
 4.78   0.0234    501.9136    863.8849 -32.42     3881.777     1.170           15     1.086      2.590     83.55525  19.0774         76
 6.61   0.0136    503.9221    763.0107 -43.28     6669.498     1.297           15     1.183      4.873     83.65935  18.4898         77
 5.50   0.0067    515.1270   1461.1959  23.62     13578.59     3.165           15     1.428      7.502     83.64989  17.7179         78
 5.29   0.0237    513.6641   1179.4293 -73.68     3824.211     1.108           15     1.000      2.678     83.62151  19.0936         79
 7.34   0.0228    509.9552    165.7900  -3.36     3979.846     0.925           15     0.752      4.254     83.64043  19.0503         80
 6.70   0.0317    518.9847    641.9470 -36.70     2864.582     0.799           15     0.787      3.212     83.64989  19.4073         81
 4.10   0.0102    540.1475    999.9556 -71.45     8909.075     1.421           15     1.395      2.666     83.62151  18.1754         82
 4.05   0.0074    558.9169   1041.8004 -39.25     12280.23     1.492           15     1.436      2.777     83.62151  17.8270         83
 3.50   0.0018    580.7043    144.9952 -18.56     50125.93     1.852           15     1.789      2.746     83.60258  16.2998         84
 6.20   0.0111    571.1791   1448.0082  16.78     8168.553     1.724           15     1.392      5.351     83.61205  18.2696         85
 5.05   0.0104    571.1408     45.9030  46.69     8761.485     1.723           15     1.375      4.232     83.55525  18.1936         86
 3.50   0.0018    582.1893    319.2213 -29.88     50043.86     1.849           15     1.828      2.800     83.60258  16.3016         87
 8.18   0.0399    564.5248    139.4902 -30.93     2275.585     0.500           15     0.499      2.498     83.55525  19.6573         88
 5.03   0.0037    596.6255    782.6691 -66.55     24461.77     2.754           15     2.550      7.895     83.63097  17.0788         89
 8.46   0.0304    576.1635   1001.6136 -71.27     2992.163     0.761           15     0.445      3.261     83.64043  19.3600         90
 5.07   0.0267    584.5106     76.0003  -4.07     3404.696     1.090           15     0.952      2.551     83.59312  19.2198         91
 5.03   0.0213    999.8098   1273.8372 -43.92      4273.53     1.170           15     1.022      2.643     83.63097  18.9730         92
 6.79   0.0164   1597.6390    654.5967 -45.12     4740.303     1.116           15     0.977      4.041     71.76811  18.8605         93
 6.71   0.0292   1594.6692    374.0728  67.41     3015.452     0.914           15     0.695      3.266     80.99732  19.3516         94
 5.66   0.0169   1545.9485    863.5548  53.44     5387.975     1.260           15     1.155      3.839     83.63097  18.7214         95
 4.26   0.0070   1542.5569    654.7997 -60.86     12980.42     1.489           15     1.441      2.813     83.65935  17.7668         96
 3.90   0.0051   1541.7950    135.2048 -50.35     17890.93     1.581           15     1.523      2.702     83.58366  17.4184         97
 6.56   0.0126    986.5396    454.0250 -88.33     7191.652     1.386           15     1.212      5.685     83.64043  18.4079         98
 6.14   0.0170    980.8835    797.9240 -35.20     5328.788     1.199           15     1.108      4.244     83.56472  18.7334         99
 8.18   0.0291    978.1918    452.6013 -71.18     3117.253     0.748           15     0.450      3.511     83.58366  19.3156        100
 6.60   0.0397    965.0332    416.3022  86.88     2287.846     0.734           15     0.675      2.551     83.53632  19.6514        101
 7.07   0.0214    950.6561    654.3515 -46.99     4235.256     1.025           15     0.890      4.147     83.62151  18.9828        102
 6.76   0.0435    947.8088    445.1726 -45.09     2088.651     0.748           15     0.566      2.651     83.63097  19.7503        103
 4.16   0.0094    939.1533   1067.2017 -58.68     9627.731     1.446           15     1.381      2.670     83.66881  18.0912        104
 8.98   0.0240    938.4924    516.4891  45.18         3783     0.505           15     0.495      3.027     83.54578  19.1054        105
 4.40   0.0163    928.2680   1322.5824 -56.66     5586.015     1.303           15     1.216      2.807     83.64989  18.6822        106
 4.70   0.0225    912.7397    838.6965 -39.63     4032.624     1.150           15     1.092      2.499     83.56472  19.0360        107
 6.06   0.0402    912.1494   1001.1208 -45.05     2259.532     0.824           15     0.669      2.322     83.57419  19.6650        108
 3.54   0.0027    900.4453    302.8825 -85.15     33194.76     1.740           15     1.710      2.743     83.58366  16.7473        109
 6.10   0.0120    896.0751    538.3304 -11.84     7562.423     1.458           15     1.221      4.684     83.56472  18.3533        110
 8.47   0.0468    893.5365   1426.4833 -38.45      1938.46     0.502           15     0.497      2.662     83.58366  19.8314        111
 3.50   0.0002    880.2390   1592.6417 -80.37     582802.9     2.337           15     2.268      2.933     83.64989  13.6362        112
 7.65   0.0205    888.2291    325.8946  20.30     4431.009     1.147           15     0.652      4.272     83.59312  18.9337        113
 5.19   0.0207    885.7134   1500.2341  57.73     4396.249     1.135           15     1.108      2.599     83.61205  18.9423        114
 5.62   0.0375    877.4744    961.1338 -70.66     2416.351     1.010           15     0.875      2.428     83.54578  19.5921        115
 4.37   0.0066    869.3719   1103.6423 -39.97     13745.56     1.779           15     1.604      3.796     83.64989  17.7046        116
 6.32   0.0172    867.7889    939.9327  35.04     5271.283     1.345           15     1.117      4.174     83.65935  18.7452        117
 5.72   0.0259    858.3664   1339.6073 -50.83     3507.238     1.020           15     0.872      3.103     83.64043  19.1876        118
 5.58   0.0362    844.8506   1064.1110  83.28     2505.467     0.884           15     0.873      2.426     83.57419  19.5528        119
 5.15   0.0154    843.2003   1106.2869  21.11     5895.766     1.358           15     1.133      3.509     83.60258  18.6236        120
 4.45   0.0119    836.6286    298.7254 -43.67     7617.062     1.355           15     1.249      2.741     83.61205  18.3455        121
 7.01   0.0518    835.4894    819.0327  -0.90      1750.96     0.782           15     0.500      2.441     83.59312  19.9418        122
 3.56   0.0027    823.0253    654.4568   1.82     33965.13     1.753           15     1.718      2.785     83.64989  16.7224        123
 3.70   0.0029    803.0850   1378.8055 -34.87      30861.2     1.688           15     1.663      2.776     83.61205  16.8265        124
 3.50   0.0010    798.5104    695.7368 -87.54     89800.62     2.589           15     1.943      3.821     83.58366  15.6668        125
 3.96   0.0062    800.6845     41.2849 -43.50     14650.16     1.528           15     1.506      2.796     83.53632  17.6354        126
 5.32   0.0070    774.0239   1427.4475  88.38     12991.08     2.326           15     1.674      6.239     83.65935  17.7659        127
 4.44   0.0116    742.7661    556.4435 -30.50     7822.547     1.398           15     1.282      2.835     83.65935  18.3166        128
 5.41   0.0327    738.0269   1158.1278 -88.56     2780.767     0.964           15     0.853      2.431     83.62151  19.4396        129
 5.89   0.0282    736.1250    649.8141  25.90     3222.909     0.881           15     0.859      2.584     83.66881  19.2794        130
 3.50   0.0003    726.6069    848.5333 -46.29     347371.5     2.255           15     2.214      2.897     83.66881  14.1980        131
 4.43   0.0166    727.3254   1178.3730  57.64     5463.144     1.280           15     1.236      2.674     83.61205  18.7064        132
 7.83   0.0451    721.3849   1394.8331 -18.23     2012.243     0.753           15     0.448      2.837     83.63097  19.7908        133
 4.45   0.0130    715.8329    808.4426  24.42     7006.552     1.314           15     1.266      2.721     83.65935  18.4362        134
 4.44   0.0131    708.8307   1163.8340 -84.28     6950.792     1.329           15     1.291      2.689     83.64989  18.4449        135
 4.94   0.0108    704.2529   1339.2089 -30.67     8415.162     1.450           15     1.307      4.098     83.66881  18.2373        136
 3.97   0.0071    702.8453    952.6252 -31.00     12851.47     1.559           15     1.461      2.833     83.65935  17.7776        137
 6.47   0.0228    691.5324   1213.7166  82.90     3978.856     1.002           15     0.982      3.898     83.57419  19.0506        138
