#   1 KRON_RADIUS            Kron apertures in units of A or B                         
#   2 MAGERR_APER            RMS error vector for fixed aperture mag.                   [mag]
#   3 Y_IMAGE                Object position along y                                    [pixel]
#   4 X_IMAGE                Object position along x                                    [pixel]
#   5 THETA_IMAGE            Position angle (CCW/x)                                     [deg]
#   6 FLUX_APER              Flux vector within fixed circular aperture(s)              [count]
#   7 A_IMAGE                Profile RMS along major axis                               [pixel]
#   8 THRESHOLD              Detection threshold above background                       [count]
#   9 B_IMAGE                Profile RMS along minor axis                               [pixel]
#  10 FLUX_RADIUS            Fraction-of-light radii                                    [pixel]
#  11 FLUXERR_APER           RMS error vector for aperture flux(es)                     [count]
#  12 MAG_APER               Fixed aperture magnitude vector                            [mag]
#  13 NUMBER                 Running object number                                     
 4.27   0.0005     53.2285     63.7742  -2.74     28848.55     4.404           15     4.007      9.899     13.17053  16.8997          1
 4.33   0.0030     16.3044    985.0226 -87.82     4759.294     3.688           15     1.825      6.962     13.16606  18.8561          2
 4.07   0.0036     18.0125     91.3880 -63.52     3933.322     1.651           15     1.570      3.282     13.16606  19.0631          3
 3.50   0.0014     14.6138   1445.7917 -52.45     10076.85     1.870           15     1.806      3.215     13.16159  18.0417          4
 7.08   0.0266     17.0088    384.7113 -85.01     538.5212     0.733           15     0.676      3.384     13.16904  21.2220          5
 5.18   0.0170     24.6807    367.1530 -22.26     841.5439     1.213           15     1.050      3.170     13.16308  20.7373          6
 3.50   0.0003     59.7943   1078.5426  78.54     46061.76     2.290           15     2.178      3.454     13.17798  16.3916          7
 3.50   0.0003     80.1343    537.6766 -39.94      44486.3     2.198           15     2.143      3.383     13.15712  16.4294          8
 4.41   0.0086     75.0783    128.1779 -45.31     1662.212     1.483           15     1.375      3.238     13.17053  19.9983          9
 3.50   0.0002    121.8205    789.2079 -57.78     65850.78     2.257           15     2.200      3.399     13.16606  16.0036         10
 4.36   0.0059     96.6213     56.2591 -27.79     2441.149     1.550           15     1.496      3.347     13.17351  19.5810         11
 8.72   0.0334     82.3262    421.3430 -44.29     428.0639     0.578           15     0.333      2.878     13.16308  21.4712         12
 8.98   0.0158     90.5028    376.9697   0.25     905.3552     0.809           15     0.500      4.160      13.1601  20.6580         13
 7.62   0.0244     97.9985    452.9957 -44.10     585.8167     0.897           15     0.535      3.624     13.16606  21.1306         14
 3.50   0.0004    162.2912   1468.3754 -61.62     37307.38     2.138           15     2.082      3.347     13.16606  16.6205         15
 3.61   0.0017    170.2583    877.3432 -57.04     8458.538     1.850           15     1.787      3.288     13.16308  18.2318         16
 5.67   0.0188    164.8608   1445.7177 -66.82     760.1988     1.143           15     1.020      3.425      13.1601  20.8477         17
 5.49   0.0266    166.7144    104.4765 -15.27     537.4549     0.997           15     0.941      2.896     13.15712  21.2241         18
 5.91   0.0134    192.5169   1350.5178 -61.72     1068.968     1.214           15     1.196      4.724     13.15861  20.4776         19
 4.19   0.0082    206.7009    549.1866 -29.35     1735.058     1.425           15     1.358      3.089     13.16308  19.9517         20
 5.62   0.0040    210.5408    827.6758  -5.63     3560.021     2.735           15     1.779      8.065     13.16457  19.1714         21
 4.37   0.0082    212.1142   1306.1636 -54.87     1741.984     1.451           15     1.360      3.164     13.16755  19.9474         22
 6.08   0.0046    229.6508    562.2986 -10.00     3125.314     2.622           15     2.362      9.083     13.15115  19.3128         23
 7.67   0.0262    210.7098    684.9471   5.90     545.5815     0.739           15     0.683      3.569     13.16159  21.2078         24
 4.03   0.0072    223.9435   1226.1060 -71.74     1996.727     1.479           15     1.414      3.070     13.16159  19.7992         25
 3.50   0.0001    259.7716    997.4949 -49.16     114558.6     2.375           15     2.315      3.449     13.16308  15.4024         26
 5.81   0.0209    222.4698    774.9534  -2.23      685.009     1.090           15     0.945      3.052     13.16606  20.9608         27
 3.50   0.0002    265.9278     67.6582 -37.18     84200.95     2.300           15     2.264      3.400     13.16308  15.7367         28
 6.71   0.0101    243.7849    112.9405 -80.90     1415.057     1.516           15     1.209      5.995     13.16904  20.1731         29
 5.13   0.0042    255.2897    613.0684 -43.66     3405.177     2.125           15     1.773      5.720      13.1601  19.2197         30
 7.97   0.0243    239.1856    838.8074 -44.52     587.7296     0.763           15     0.567      3.829     13.16159  21.1271         31
 8.32   0.0214    250.4927    107.4911 -45.11     666.3206     0.503           15     0.497      3.020     13.15562  20.9908         32
 3.50   0.0007    287.5205   1486.5184 -58.45      19914.7     2.006           15     1.960      3.303     13.16159  17.3021         33
 3.71   0.0033    281.8881   1522.3986 -84.82     4385.979     1.660           15     1.609      3.178     13.16755  18.9448         34
 8.88   0.0324    270.5084   1273.4916 -45.00     441.5063     0.505           15     0.495      3.030     13.15413  21.4377         35
 3.50   0.0010    303.1597    201.8013 -20.33     14612.95     1.942           15     1.887      3.260     13.17202  17.6382         36
 6.79   0.0165    293.4639   1475.6927 -55.59      864.523     0.984           15     0.950      4.729     13.16457  20.7081         37
 5.55   0.0191    302.2210    563.7106  19.09     750.5594     1.074           15     1.044      3.292     13.16606  20.8615         38
 3.50   0.0015    322.0659    697.3301 -38.79     9694.831     1.840           15     1.788      3.226     13.16159  18.0836         39
 5.47   0.0078    327.3771    595.5006  -6.78     1840.943     1.606           15     1.439      4.787      13.1601  19.8874         40
 9.85   0.0179    321.5020    641.5054 -45.19     799.5027     0.502           15     0.498      3.012     13.15413  20.7929         41
 7.23   0.0470    329.2394   1545.9945   0.27     304.5916     0.683           15     0.427      2.569     13.17053  21.8407         42
 6.34   0.0338    332.1343     93.3228 -20.74     423.2603     0.903           15     0.689      3.092     13.15712  21.4835         43
 4.96   0.0152    350.0178     54.7950 -29.90      941.474     1.208           15     1.168      3.238     13.16606  20.6155         44
 3.71   0.0014    368.1374    761.1620 -36.50     10020.14     1.861           15     1.810      3.293     13.16904  18.0478         45
 4.32   0.0079    361.1077   1500.4562 -89.12     1807.216     1.472           15     1.387      3.336     13.16159  19.9075         46
 5.59   0.0305    360.2700   1033.9875 -89.56     468.8531     0.911           15     0.754      2.810     13.17798  21.3724         47
 3.50   0.0003    395.2099    231.5074 -46.89     48949.12     2.198           15     2.142      3.367     13.16606  16.3256         48
 6.91   0.0231    380.7730      1.4245 -85.27     471.4305     1.270           15     0.485      4.234     10.01746  21.3665         49
 3.52   0.0018    398.1901    354.6606 -50.94     7926.734     1.806           15     1.749      3.202     13.17649  18.3023         50
 3.51   0.0021    397.0133   1461.2390 -54.40      6869.99     1.754           15     1.693      3.169     13.17351  18.4576         51
 4.33   0.0088    393.6656   1088.6307 -83.95     1627.636     1.339           15     1.309      3.076     13.16904  20.0211         52
 7.19   0.0154    412.0781      1.4993 -89.95     708.6735     1.912           15     0.500      5.627     10.05656  20.9239         53
 3.50   0.0009    437.9597    252.1309 -26.57     15993.72     1.982           15     1.933      3.306     13.16904  17.5401         54
 3.50   0.0001    461.1037    807.6888 -48.66     138460.8     2.396           15     2.330      3.431     13.15413  15.1967         55
 6.51   0.0157    420.8617    159.1614  44.08     912.2466     1.258           15     1.071      4.545     13.16904  20.6497         56
 4.59   0.0117    432.8108   1422.1188  88.02     1223.279     1.295           15     1.230      3.101     13.17202  20.3312         57
 7.75   0.0005    426.5462    432.7873  -2.62     26752.75     1.567           15     0.493      4.280       13.175  16.9816         58
 6.12   0.0285    434.0167    151.0135 -28.97     502.3152     0.789           15     0.781      2.931     13.16904  21.2976         59
 3.88   0.0028    450.3694     21.3889 -15.23      5048.28     1.705           15     1.651      3.245     13.17351  18.7921         60
 3.82   0.0025    457.8665     34.6008 -24.79     5714.506     1.751           15     1.664      3.259     13.17649  18.6576         61
 6.19   0.0163    445.1345    122.2004 -43.52     876.6173     1.230           15     1.050      4.043     13.17798  20.6930         62
 6.02   0.0259    439.9788    305.5764  -2.57     551.8508     1.027           15     0.784      2.998     13.17202  21.1954         63
 5.49   0.0034    467.4917    850.3239  22.50     4214.365     5.904           15     1.818     13.760      13.1601  18.9882         64
 4.46   0.0079    463.7177    468.7029  23.51     1799.423     1.437           15     1.374      3.278     13.15562  19.9122         65
 7.83   0.0524    452.6775   1533.3118  45.56      272.883     0.563           15     0.341      2.336     13.15712  21.9601         66
 5.56   0.0248    460.7216   1096.3547 -44.09      576.677     1.008           15     0.872      3.120     13.16308  21.1477         67
 4.21   0.0064    472.0145    734.9021 -41.74     2226.667     1.509           15     1.427      3.148     13.16457  19.6809         68
 4.67   0.0090    471.4069    254.3637 -14.93     1596.678     1.360           15     1.318      3.335     13.17053  20.0420         69
 3.98   0.0050    477.9256    923.0577 -73.05     2864.323     1.536           15     1.478      3.121     13.16308  19.4074         70
 4.94   0.0136    477.4364   1276.4424 -46.13     1048.684     1.083           15     0.882      3.076     13.17351  20.4984         71
 4.57   0.0117    483.9413   1070.6448 -26.83     1217.427     1.320           15     1.216      3.018     13.16606  20.3364         72
 5.86   0.0068    495.8116     83.2151  54.41     2117.433     1.947           15     1.697      6.401     13.16755  19.7355         73
 6.14   0.0070    495.3471   1186.9773 -14.84     2040.165     2.239           15     1.528      6.894     13.17649  19.7758         74
 9.27   0.0208    488.4953    839.5061  45.05     685.2263     0.505           15     0.495      3.029     13.15413  20.9604         75
 4.78   0.0194    501.9136    863.8849 -32.42     736.5057     1.170           15     1.086      3.007     13.15861  20.8821         76
 6.61   0.0116    503.9221    763.0107 -43.28     1231.972     1.297           15     1.183      5.092       13.175  20.3235         77
 5.50   0.0056    515.1270   1461.1959  23.62     2565.293     3.165           15     1.428      7.735     13.17351  19.5272         78
 5.29   0.0191    513.6641   1179.4293 -73.68     747.4776     1.108           15     1.000      3.097     13.16904  20.8660         79
 7.34   0.0192    509.9552    165.7900  -3.36     744.2896     0.925           15     0.752      4.464     13.17202  20.8706         80
 6.70   0.0266    518.9847    641.9470 -36.70     537.2896     0.799           15     0.787      3.362     13.17351  21.2245         81
 4.10   0.0084    540.1475    999.9556 -71.45     1711.939     1.421           15     1.395      3.099     13.16904  19.9663         82
 4.05   0.0062    558.9169   1041.8004 -39.25     2324.045     1.492           15     1.436      3.180     13.16904  19.6344         83
 3.50   0.0015    580.7043    144.9952 -18.56     9552.123     1.852           15     1.789      3.224     13.16606  18.0997         84
 6.20   0.0092    571.1791   1448.0082  16.78     1555.846     1.724           15     1.392      5.516     13.16755  20.0701         85
 5.05   0.0087    571.1408     45.9030  46.69      1645.78     1.723           15     1.375      4.500     13.15861  20.0091         86
 3.50   0.0015    582.1893    319.2213 -29.88     9518.646     1.849           15     1.828      3.242     13.16606  18.1036         87
 8.18   0.0321    564.5248    139.4902 -30.93     445.1684     0.500           15     0.499      2.857     13.15861  21.4287         88
 5.03   0.0031    596.6255    782.6691 -66.55     4642.774     2.754           15     2.550      8.019     13.17053  18.8831         89
 8.46   0.0256    576.1635   1001.6136 -71.27     558.2717     0.761           15     0.445      3.389     13.17202  21.1829         90
 5.07   0.0222    584.5106     76.0003  -4.07     644.1498     1.090           15     0.952      3.004     13.16457  21.0275         91
 5.03   0.0175    999.8098   1273.8372 -43.92     818.5636     1.170           15     1.022      3.151     13.17053  20.7674         92
 6.79   0.0140   1597.6390    654.5967 -45.12     875.3809     1.116           15     0.977      4.181     11.30232  20.6945         93
 6.71   0.0247   1594.6692    374.0728  67.41     560.6107     0.914           15     0.695      3.466     12.75577  21.1783         94
 5.66   0.0145   1545.9485    863.5548  53.44     986.0107     1.260           15     1.155      4.015     13.17053  20.5653         95
 4.26   0.0059   1542.5569    654.7997 -60.86     2424.189     1.489           15     1.441      3.225       13.175  19.5886         96
 3.90   0.0042   1541.7950    135.2048 -50.35     3393.311     1.581           15     1.523      3.154     13.16308  19.2234         97
 6.56   0.0103    986.5396    454.0250 -88.33       1384.1     1.386           15     1.212      6.021     13.17202  20.1971         98
 6.14   0.0145    980.8835    797.9240 -35.20     986.0526     1.199           15     1.108      4.326      13.1601  20.5652         99
 8.18   0.0225    978.1918    452.6013 -71.18     634.5737     0.748           15     0.450      3.752     13.16308  21.0438        100
 6.60   0.0332    965.0332    416.3022  86.88     430.0155     0.734           15     0.675      2.763     13.15562  21.4663        101
 7.07   0.0180    950.6561    654.3515 -46.99     795.9415     1.025           15     0.890      4.370     13.16904  20.7978        102
 6.76   0.0353    947.8088    445.1726 -45.09     405.0448     0.748           15     0.566      2.910     13.17053  21.5312        103
 4.16   0.0078    939.1533   1067.2017 -58.68     1836.082     1.446           15     1.381      3.122     13.17649  19.8903        104
 8.98   0.0207    938.4924    516.4891  45.18     689.1284     0.505           15     0.495      3.027     13.15712  20.9542        105
 4.40   0.0138    928.2680   1322.5824 -56.66     1038.301     1.303           15     1.216      3.068     13.17351  20.5092        106
 4.70   0.0184    912.7397    838.6965 -39.63     775.5087     1.150           15     1.092      2.866      13.1601  20.8260        107
 6.06   0.0335    912.1494   1001.1208 -45.05      426.763     0.824           15     0.669      2.697     13.16159  21.4745        108
 3.54   0.0023    900.4453    302.8825 -85.15     6346.136     1.740           15     1.710      3.186     13.16308  18.5437        109
 6.10   0.0101    896.0751    538.3304 -11.84     1416.658     1.458           15     1.221      4.899      13.1601  20.1718        110
 8.47   0.0412    893.5365   1426.4833 -38.45     346.7075     0.502           15     0.497      2.905     13.16308  21.7001        111
 3.50   0.0001    880.2390   1592.6417 -80.37     111035.4     2.337           15     2.268      3.420     13.17351  15.4363        112
 7.65   0.0174    888.2291    325.8946  20.30     820.4543     1.147           15     0.652      4.409     13.16457  20.7649        113
 5.19   0.0175    885.7134   1500.2341  57.73     814.8167     1.135           15     1.108      3.048     13.16755  20.7724        114
 5.62   0.0289    877.4744    961.1338 -70.66     495.1714     1.010           15     0.875      2.812     13.15712  21.3131        115
 4.37   0.0055    869.3719   1103.6423 -39.97     2616.146     1.779           15     1.604      4.099     13.17351  19.5058        116
 6.32   0.0142    867.7889    939.9327  35.04     1008.969     1.345           15     1.117      4.551       13.175  20.5403        117
 5.72   0.0214    858.3664   1339.6073 -50.83     668.6514     1.020           15     0.872      3.314     13.17202  20.9870        118
 5.58   0.0302    844.8506   1064.1110  83.28      473.468     0.884           15     0.873      2.746     13.16159  21.3618        119
 5.15   0.0130    843.2003   1106.2869  21.11     1101.186     1.358           15     1.133      3.742     13.16606  20.4453        120
 4.45   0.0099    836.6286    298.7254 -43.67     1451.747     1.355           15     1.249      3.180     13.16755  20.1453        121
 7.01   0.0484    835.4894    819.0327  -0.90     295.4692     0.782           15     0.500      2.594     13.16457  21.8737        122
 3.56   0.0022    823.0253    654.4568   1.82     6423.778     1.753           15     1.718      3.192     13.17351  18.5305        123
 3.70   0.0024    803.0850   1378.8055 -34.87     5847.072     1.688           15     1.663      3.210     13.16755  18.6327        124
 3.50   0.0008    798.5104    695.7368 -87.54     17000.76     2.589           15     1.943      4.117     13.16308  17.4738        125
 3.96   0.0051    800.6845     41.2849 -43.50     2784.931     1.528           15     1.506      3.209     13.15562  19.4380        126
 5.32   0.0059    774.0239   1427.4475  88.38     2443.148     2.326           15     1.674      6.275       13.175  19.5801        127
 4.44   0.0094    742.7661    556.4435 -30.50     1524.567     1.398           15     1.282      3.225       13.175  20.0921        128
 5.41   0.0268    738.0269   1158.1278 -88.56      534.074     0.964           15     0.853      2.868     13.16904  21.2310        129
 5.89   0.0234    736.1250    649.8141  25.90     611.3134     0.881           15     0.859      3.082     13.17649  21.0843        130
 3.50   0.0002    726.6069    848.5333 -46.29     66316.68     2.255           15     2.214      3.401     13.17649  15.9959        131
 4.43   0.0137    727.3254   1178.3730  57.64     1040.131     1.280           15     1.236      2.997     13.16755  20.5073        132
 7.83   0.0395    721.3849   1394.8331 -18.23     362.0943     0.753           15     0.448      2.968     13.17053  21.6529        133
 4.45   0.0108    715.8329    808.4426  24.42     1320.595     1.314           15     1.266      3.009       13.175  20.2481        134
 4.44   0.0108    708.8307   1163.8340 -84.28      1323.94     1.329           15     1.291      3.064     13.17351  20.2453        135
 4.94   0.0089    704.2529   1339.2089 -30.67     1607.056     1.450           15     1.307      4.290     13.17649  20.0349        136
 3.97   0.0059    702.8453    952.6252 -31.00     2433.865     1.559           15     1.461      3.182       13.175  19.5843        137
 6.47   0.0189    691.5324   1213.7166  82.90     756.6418     1.002           15     0.982      4.027     13.16159  20.8528        138
