#   1 KRON_RADIUS            Kron apertures in units of A or B                         
#   2 MAGERR_APER            RMS error vector for fixed aperture mag.                   [mag]
#   3 Y_IMAGE                Object position along y                                    [pixel]
#   4 X_IMAGE                Object position along x                                    [pixel]
#   5 FLUX_APER              Flux vector within fixed circular aperture(s)              [count]
#   6 THRESHOLD              Detection threshold above background                       [count]
#   7 THETA_IMAGE            Position angle (CCW/x)                                     [deg]
#   8 A_IMAGE                Profile RMS along major axis                               [pixel]
#   9 B_IMAGE                Profile RMS along minor axis                               [pixel]
#  10 FLUX_RADIUS            Fraction-of-light radii                                    [pixel]
#  11 FLUXERR_APER           RMS error vector for aperture flux(es)                     [count]
#  12 MAG_APER               Fixed aperture magnitude vector                            [mag]
#  13 NUMBER                 Running object number                                     
 4.23   0.0000     53.2652     63.6543     56511.18      43.5214   3.17     5.181     4.630      3.573   0.01318744  16.1697          1
 3.95   0.0000     16.5149    985.0804     8842.961      43.5214 -88.61     4.203     1.941      2.982   0.01318296  18.1835          2
 4.06   0.0000     18.0504     91.3141      7233.07      43.5214   0.42     1.768     1.716      2.218   0.01318594  18.4017          3
 3.50   0.0000     14.6167   1445.7477     21325.14      43.5214 -47.82     1.890     1.819      2.209   0.01319639  17.2278          4
 8.12   0.0000     10.2946   1183.6542     295.6055      43.5214  42.42     0.565     0.339      2.272   0.01318296  21.8732          5
 7.36   0.0000      4.2259    145.0241     297.8379      43.5214  89.83     0.957     0.768      3.088   0.01181888  21.8650          6
 6.64   0.0000     17.2495    384.5071     822.5478      43.5214  19.99     0.993     0.952      2.337   0.01318146  20.7621          7
 5.14   0.0000     24.7971    367.2085      1404.07      43.5214  13.81     1.305     1.234      2.191   0.01318744  20.1815          8
 3.50   0.0000     59.7850   1078.4766     105473.3      43.5214  77.02     2.287     2.159      2.246   0.01320087  15.4921          9
 8.57   0.0000     23.7800    383.3999     932.9934      43.5214 -71.85     0.755     0.452      2.310   0.01319192  20.6253         10
 6.41   0.0000     33.9023   1110.1802     731.7966      43.5214  68.24     1.657     0.778      2.362   0.01318594  20.8890         11
 7.88   0.0000     33.3076    326.9492      537.801      43.5214  -6.92     0.747     0.677      2.482   0.01318445  21.2234         12
 5.98   0.0000     37.8655   1521.1591     444.1393      43.5214  46.72     0.834     0.669      2.300   0.01319192  21.4312         13
 7.05   0.0000     38.8750   1170.6508     389.1982      43.5214 -19.52     0.923     0.691      2.228   0.01318296  21.5746         14
 5.87   0.0000     42.4605    915.4996     463.7977      43.5214 -77.10     0.913     0.907      2.216   0.01318146  21.3842         15
 3.50   0.0000     80.1536    537.6561     96326.44      43.5214 -59.56     2.145     2.122      2.278   0.01319042  15.5906         16
 9.02   0.0000     44.6655    440.6699      463.555      43.5214 -45.19     0.576     0.334      1.919   0.01318445  21.3847         17
 4.26   0.0000     75.2162    128.0142     2987.848      43.5214  -5.75     1.516     1.469      2.255   0.01319192  19.3616         18
 6.64   0.0000     82.2787    421.5101     589.6189      43.5214 -15.66     0.994     0.986      2.412   0.01318146  21.1236         19
 3.50   0.0000    121.8120    789.2006     144842.6      43.5214 -62.81     2.230     2.179      2.166   0.01319192  15.1478         20
 6.02   0.0000     90.7295    376.9918     1401.704      43.5214   4.47     1.628     1.442      2.833   0.01319788  20.1834         21
 4.42   0.0000     96.6151     56.2576     4345.606      43.5214 -38.95     1.639     1.566      2.183   0.01319341  18.9549         22
 6.10   0.0000     98.0585    452.9797     934.9857      43.5214 -14.82     1.454     1.005      2.327   0.01319639  20.6230         23
 7.39   0.0000     91.4945    495.9650      427.608      43.5214  -1.40     0.788     0.500      2.235   0.01318296  21.4724         24
 3.50   0.0000    162.2989   1468.3301     82191.99      43.5214 -48.48     2.111     2.074      2.162   0.01318445  15.7629         25
 6.85   0.0001    131.2865    418.0175     286.4363      43.5214   5.64     0.729     0.681      2.279   0.01319042  21.9074         26
 3.55   0.0000    170.2996    877.3505      16644.6      43.5214  -8.96     1.882     1.865      2.182   0.01317399  17.4968         27
 8.52   0.0000    151.4999   1280.4825     364.5128      43.5214 -47.88     0.501     0.498      2.017   0.01317549  21.6457         28
 5.51   0.0000    164.9741   1445.6677     1188.919      43.5214  17.35     1.303     1.186      2.251   0.01319341  20.3621         29
 4.82   0.0000    166.8505    104.4303     998.4245      43.5214 -46.35     1.196     1.124      2.163   0.01319639  20.5517         30
 6.42   0.0000    169.3397   1368.8977     353.6885      43.5214  68.06     0.910     0.689      2.227   0.01318146  21.6784         31
 7.68   0.0000    180.3316    574.9897     765.1697      43.5214  53.18     1.039     0.643      2.572   0.01319938  20.8406         32
 7.49   0.0000    186.6387   1354.8976     623.1357      43.5214  75.59     1.045     0.753      2.478   0.01317997  21.0635         33
 5.30   0.0000    192.6023   1350.5554     1618.485      43.5214 -19.15     1.368     1.305      2.158   0.01319938  20.0272         34
 4.77   0.0000    210.7202    827.6749     6300.052      43.5214  -5.78     3.810     2.091      2.902   0.01318594  18.5516         35
 4.14   0.0000    206.7225    549.0807     3182.061      43.5214   3.37     1.545     1.484      2.194   0.01318744  19.2932         36
 4.19   0.0000    212.1664   1306.1005     2991.768      43.5214 -64.54     1.516     1.487      2.153   0.01317698  19.3602         37
 5.52   0.0000    230.1494    562.2775     5480.257      43.5214 -37.31     3.231     3.004      4.267   0.01318296  18.7030         38
 5.76   0.0000    210.8939    684.8484     861.4748      43.5214 -66.39     1.218     1.115      2.368   0.01318146  20.7119         39
 3.50   0.0000    259.7588    997.4791     270865.8      43.5214 -48.81     2.331     2.263      2.175   0.01318893  14.4681         40
 3.92   0.0000    223.9121   1226.0618     3754.509      43.5214  25.89     1.523     1.479      2.106   0.01318445  19.1136         41
 4.86   0.0000    222.6267    774.9695     1189.578      43.5214  81.57     1.224     1.191      2.129   0.01319341  20.3615         42
 3.50   0.0000    265.9002     67.6173     186342.6      43.5214 -49.31     2.268     2.237      2.268   0.01318594  14.8742         43
 5.52   0.0000    243.9732    112.8913     2399.522      43.5214 -88.19     1.951     1.539      3.092   0.01318744  19.5997         44
 4.81   0.0000    255.4885    613.0098     5936.458      43.5214 -41.01     2.436     2.028      2.523   0.01319192  18.6162         45
 6.52   0.0000    239.3535    838.8231     784.3036      43.5214  -5.84     1.203     1.102      2.268    0.0131949  20.8138         46
 7.18   0.0000    250.5180    107.4840     854.8334      43.5214 -42.78     1.108     0.852      2.434   0.01318296  20.7203         47
 3.50   0.0000    287.5196   1486.4733     42913.24      43.5214 -43.97     2.033     1.992      2.187   0.01318445  16.4685         48
 3.66   0.0000    281.9236   1522.4003     8623.599      43.5214   3.77     1.701     1.668      2.105   0.01319341  18.2108         49
 6.46   0.0000    270.7727   1273.6278     605.6075      43.5214  16.49     1.000     0.849      2.188    0.0131949  21.0945         50
 3.50   0.0000    303.1506    201.7659     29982.25      43.5214 -78.11     1.968     1.942      2.261   0.01319341  16.8578         51
 6.27   0.0000    293.2967   1475.8354     1128.218      43.5214 -33.66     1.250     1.086      2.107   0.01317848  20.4190         52
 4.64   0.0000    302.2875    563.6751     1461.841      43.5214  31.81     1.325     1.283      2.199   0.01318146  20.1377         53
 3.50   0.0000    322.0853    697.3419      19203.5      43.5214   1.78     1.882     1.848      2.094   0.01318594  17.3415         54
 7.64   0.0000    308.7069     85.2985     588.2902      43.5214  45.78     0.969     0.767      2.235   0.01317997  21.1260         55
 6.05   0.0000    321.9905    641.4783      1370.05      43.5214 -64.00     1.799     1.232      2.972    0.0131949  20.2082         56
 5.16   0.0000    327.5369    595.4523     3177.984      43.5214 -52.10     1.728     1.694      2.404   0.01318744  19.2946         57
 6.07   0.0000    329.2517   1546.0168     645.4833      43.5214 -87.78     0.913     0.756      2.276   0.01319639  21.0253         58
 5.83   0.0000    332.2679     93.4347     775.5366      43.5214  20.40     0.992     0.948      2.141   0.01319341  20.8260         59
 4.78   0.0000    350.1319     54.7084         1681      43.5214  -8.51     1.366     1.298      2.249   0.01318296  19.9861         60
 3.50   0.0000    368.1670    761.1217     19697.33      43.5214 -26.12     1.940     1.871      2.122   0.01319042  17.3140         61
 4.02   0.0000    361.1491   1500.4037     3281.677      43.5214 -15.08     1.586     1.464      2.243   0.01320087  19.2598         62
 3.50   0.0000    395.2009    231.4691       108883      43.5214 -63.05     2.184     2.143      2.263   0.01319788  15.4576         63
 5.78   0.0000    360.5269   1034.0070     912.7425      43.5214  -1.40     1.111     0.957      2.253   0.01319788  20.6491         64
 6.91   0.0000    375.4792    754.0627     798.4434      43.5214  56.22     1.715     0.961      2.033   0.01318296  20.7944         65
 7.68   0.0000    370.3091     71.9499     473.7242      43.5214 -10.89     0.743     0.672      2.203   0.01318744  21.3612         66
 6.47   0.0000    373.4826   1083.8826     713.1023      43.5214 -17.84     1.100     0.990      2.455   0.01318296  20.9171         67
 6.41   0.0002    380.6161      1.4882     65.09715      43.5214 -89.79     1.601     0.500      3.001   0.01007989  23.5161         68
 3.50   0.0000    397.0519   1461.2017     14267.54      43.5214 -44.85     1.804     1.797      2.119   0.01320087  17.6641         69
 3.50   0.0000    398.1799    354.6261     15263.39      43.5214 -13.53     1.890     1.844      2.229   0.01319192  17.5909         70
 8.09   0.0000    375.6552     87.2937     405.2644      43.5214  47.61     0.564     0.339      2.061   0.01318445  21.5307         71
 6.71   0.0000    380.1594    125.8447     611.0153      43.5214  44.65     0.818     0.680      2.369    0.0131949  21.0849         72
 4.22   0.0000    393.8183   1088.7736     3236.468      43.5214 -35.06     1.516     1.449      2.147   0.01319341  19.2748         73
 8.89   0.0000    382.4900     67.5055     491.4935      43.5214 -44.69     0.503     0.497      2.110   0.01317848  21.3212         74
 8.07   0.0000    388.6902   1195.3347     315.1455      43.5214  43.77     0.567     0.338      2.447   0.01318744  21.8037         75
 6.14   0.0001    412.0432      1.7727     155.2204      43.5214  90.00     2.505     0.701      4.363   0.01029061  22.5726         76
 7.90   0.0000    396.8768    626.5975     1244.568      43.5214 -73.71     1.239     0.985      3.006   0.01319341  20.3125         77
 8.16   0.0000    403.6928    526.4366     575.8854      43.5214  81.17     1.023     0.476      2.337   0.01318445  21.1492         78
 7.54   0.0000    407.0518    282.4902     435.8179      43.5214 -88.59     0.787     0.500      2.013   0.01318744  21.4517         79
 3.50   0.0000    437.9478    252.1072     32466.93      43.5214 -87.21     2.006     1.974      2.224   0.01318445  16.7714         80
 3.50   0.0000    461.0704    807.6703     276946.8      43.5214 -68.51     2.341     2.304      2.135   0.01317698  14.4440         81
 5.83   0.0000    420.9021    159.0900     1452.426      43.5214  37.62     1.694     1.421      2.381   0.01317848  20.1448         82
 7.67   0.0000    419.5386   1580.4929     360.7473      43.5214  40.47     0.504     0.495      2.321   0.01318445  21.6570         83
 4.17   0.0000    432.9492   1422.0629     2173.256      43.5214   6.85     1.427     1.396      2.110   0.01318744  19.7072         84
 6.72   0.0000    426.5748   1179.2787     869.5701      43.5214  26.35     1.188     0.957      2.576   0.01319192  20.7017         85
 6.42   0.0000    426.8329    433.0970     83668.38      43.5214  -3.27     2.183     0.735      4.313   0.01318146  15.7436         86
 5.15   0.0000    434.2586    151.1154     992.3832      43.5214 -20.05     1.138     1.034      2.081   0.01318594  20.5583         87
 3.88   0.0000    450.3392     21.3603     9553.813      43.5214 -27.47     1.777     1.769      2.197   0.01319341  18.0996         88
 5.07   0.0000    467.7993    850.4810      7484.57      43.5214  22.59     7.403     2.054      5.037   0.01319341  18.3646         89
 9.05   0.0000    430.6650    719.3185     733.4137      43.5214  45.76     0.572     0.336      1.979   0.01318146  20.8866         90
 4.48   0.0000    440.0043    305.8401     1101.195      43.5214  22.45     1.160     1.136      2.137   0.01319341  20.4453         91
 5.42   0.0000    445.2589    122.3780     1462.019      43.5214 -23.52     1.401     1.309      2.374   0.01319639  20.1376         92
 3.80   0.0000    457.8408     34.5939     11226.81      43.5214 -30.83     1.779     1.767      2.226    0.0131949  17.9244         93
 8.05   0.0000    443.6886    655.3237     328.0756      43.5214  44.36     0.563     0.340      2.127   0.01317997  21.7601         94
 4.32   0.0000    463.6414    468.6490     3146.486      43.5214  70.99     1.619     1.558      2.249   0.01319639  19.3054         95
 6.24   0.0000    452.9206   1533.0249     549.8854      43.5214 -31.03     0.792     0.774      2.224   0.01319192  21.1993         96
 5.22   0.0000    460.9918   1096.1410     1022.135      43.5214  47.71     1.191     1.080      2.412   0.01320087  20.5262         97
 4.60   0.0000    471.3581    254.2742     2706.625      43.5214 -79.51     1.510     1.439      2.211   0.01318893  19.4689         98
 4.03   0.0000    472.1380    734.9207     3931.987      43.5214  75.27     1.566     1.511      2.203   0.01318296  19.0635         99
 7.71   0.0000    461.8358    724.7247     627.0784      43.5214 -20.12     0.949     0.683      2.463   0.01318893  21.0567        100
 3.70   0.0000    477.9271    923.0840     5160.209      43.5214 -28.67     1.679     1.612      2.138   0.01318296  18.7683        101
 4.34   0.0000    477.2791   1276.4363      1889.13      43.5214 -44.53     1.334     0.920      3.008   0.01318893  19.8593        102
 5.84   0.0000    488.9431    839.6031      894.014      43.5214  87.10     2.059     0.959      2.872   0.01320087  20.6716        103
 4.14   0.0000    484.0388   1070.6680     2285.806      43.5214 -80.82     1.429     1.400      2.165   0.01319192  19.6524        104
 7.10   0.0000    475.9789   1168.4807     384.3658      43.5214  89.68     0.781     0.500      2.067   0.01319341  21.5881        105
 5.40   0.0000    496.2654     82.9187     3639.318      43.5214  66.13     2.311     2.046      3.241   0.01318146  19.1474        106
 6.87   0.0000    478.8629    682.8434     520.2889      43.5214 -46.10     0.819     0.679      2.173   0.01318893  21.2594        107
 5.12   0.0000    495.7248   1186.8407     3533.711      43.5214 -15.71     2.996     1.931      3.355   0.01318893  19.1794        108
 5.26   0.0000    504.0796    762.8668     2158.869      43.5214 -10.71     1.688     1.646      2.563   0.01318146  19.7144        109
 4.77   0.0000    502.0138    863.8067     1271.766      43.5214  64.62     1.201     1.192      2.252   0.01318445  20.2890        110
 4.57   0.0000    515.3623   1461.0657     4524.811      43.5214  23.93     4.115     1.649      2.917   0.01319341  18.9110        111
 6.08   0.0000    498.0054    366.2516     540.5697      43.5214   0.37     0.926     0.749      2.342   0.01320087  21.2179        112
 6.08   0.0000    509.9191    164.8152     1376.991      43.5214  -5.95     1.820     1.073      2.951    0.0131949  20.2027        113
 4.83   0.0000    513.8598   1179.1876     1326.176      43.5214  24.06     1.285     1.178      2.177    0.0131949  20.2435        114
 5.52   0.0000    519.1540    641.9484     953.0789      43.5214  22.36     1.200     1.120      2.319   0.01319788  20.6022        115
 6.45   0.0000    518.1915   1519.1722      476.938      43.5214  45.74     0.761     0.567      2.230   0.01319341  21.3538        116
 4.09   0.0000    540.2067    999.9378     3440.601      43.5214  61.15     1.534     1.490      2.180   0.01319938  19.2084        117
 6.53   0.0000    536.3547    404.5305      652.243      43.5214  38.93     1.195     0.786      1.936   0.01318744  21.0140        118
 3.90   0.0000    558.9035   1041.7982     4475.672      43.5214   6.20     1.633     1.563      2.188   0.01319042  18.9229        119
 4.74   0.0000    571.3472     45.9143     3115.098      43.5214  46.17     2.084     1.522      2.267   0.01318445  19.3163        120
 5.98   0.0000    555.8228    778.8107     392.0096      43.5214  44.57     0.756     0.567      2.168   0.01319042  21.5668        121
 3.50   0.0000    580.7163    144.9663     19914.01      43.5214  83.47     1.885     1.868      2.244   0.01319192  17.3021        122
 4.85   0.0000    571.3085   1447.7944      2777.25      43.5214  19.43     2.258     1.637      2.392   0.01318594  19.4410        123
 5.88   0.0000    565.0881    139.5546     804.7439      43.5214 -69.74     1.052     0.977      2.128   0.01318594  20.7859        124
 3.50   0.0000    582.1971    319.2584      18811.1      43.5214   7.31     1.887     1.830      2.123   0.01320087  17.3640        125
 4.29   0.0000    596.7602    782.6867     8855.707      43.5214 -62.08     3.302     3.182      3.659   0.01319042  18.1819        126
 5.97   0.0000    576.2225   1001.8235     919.3694      43.5214  40.80     1.216     1.076      2.346   0.01319341  20.6413        127
 4.64   0.0000    584.5398     76.0209     1162.079      43.5214  -0.84     1.205     1.138      2.260   0.01319639  20.3869        128
 4.19   0.0000   1001.5298   1555.4829     2206.184      43.5214  54.97     1.346     1.330      2.141   0.01318146  19.6909        129
 4.71   0.0000   1597.6036    654.7847     633.9244      43.5214   1.75     1.659     1.434      2.588    0.0113428  21.0449        130
 5.16   0.0000   1594.7568    374.1190     880.3422      43.5214  42.74     1.307     1.027      1.904   0.01274553  20.6884        131
 4.05   0.0000   1584.9181   1108.9316     3532.194      43.5214 -15.59     1.433     1.357      2.159   0.01318445  19.1799        132
 6.78   0.0000   1585.9497   1069.5099      1140.58      43.5214 -88.96     0.783     0.500      2.357   0.01318594  20.4072        133
 3.60   0.0000   1541.8564    135.1745     7549.318      43.5214  54.68     1.663     1.623      2.132    0.0131949  18.3552        134
 8.74   0.0000   1519.3268     85.3294      777.791      43.5214 -44.88     0.573     0.336      1.926   0.01317997  20.8228        135
 4.79   0.0000   1514.6519    483.6263       1470.7      43.5214 -43.74     1.049     0.951      2.274   0.01319639  20.1312        136
 4.90   0.0000    912.4185   1001.2366     1057.589      43.5214  73.44     0.989     0.957      2.097    0.0131949  20.4892        137
 3.50   0.0000    900.4997    302.8331     12708.64      43.5214 -64.19     1.794     1.787      2.201   0.01317848  17.7898        138
