#   1 KRON_RADIUS            Kron apertures in units of A or B                         
#   2 MAGERR_APER            RMS error vector for fixed aperture mag.                   [mag]
#   3 Y_IMAGE                Object position along y                                    [pixel]
#   4 X_IMAGE                Object position along x                                    [pixel]
#   5 THETA_IMAGE            Position angle (CCW/x)                                     [deg]
#   6 FLUX_APER              Flux vector within fixed circular aperture(s)              [count]
#   7 A_IMAGE                Profile RMS along major axis                               [pixel]
#   8 THRESHOLD              Detection threshold above background                       [count]
#   9 B_IMAGE                Profile RMS along minor axis                               [pixel]
#  10 FLUX_RADIUS            Fraction-of-light radii                                    [pixel]
#  11 FLUXERR_APER           RMS error vector for aperture flux(es)                     [count]
#  12 MAG_APER               Fixed aperture magnitude vector                            [mag]
#  13 NUMBER                 Running object number                                     
 3.50   0.0000     16.4846    985.0487 -88.42     4453.706     3.323           15     0.950      5.104  0.006053524  18.9282          1
 3.50   0.0000     14.7202   1445.7919 -12.73     11056.44     0.894           15     0.871      1.125   0.00605558  17.9410          2
 3.66   0.0000     10.4219   1183.5706  30.15     164.5355     0.496           15     0.493      1.027   0.00605558  22.5093          3
 3.70   0.0000     53.5542     63.8334   0.65     27978.87     3.223           15     2.760      6.314   0.00605832  16.9329          4
 3.50   0.0000     18.1610     91.3383 -13.31     4216.073     0.854           15     0.799      0.952   0.00605558  18.9877          5
 3.50   0.0000     17.1640    384.6291  21.83     365.8091     0.791           15     0.664      1.051  0.006056265  21.6419          6
 3.50   0.0000     24.0484    383.2874  85.27      239.432     0.716           15     0.638      1.327  0.006052153  22.1020          7
 3.50   0.0000     24.9643    367.1665   0.52     803.2454     0.775           15     0.706      0.827  0.006059005  20.7879          8
 4.65   0.0000     31.6623   1109.2914  47.49     168.5683     0.560           15     0.341      1.196  0.006053524  22.4831          9
 4.21   0.0000     35.0246   1110.5502  87.83     253.3788     0.755           15     0.497      1.423  0.006059005  22.0406         10
 5.57   0.0000     33.4304    326.8004 -20.62     236.2767     0.724           15     0.454      1.885   0.00605421  22.1164         11
 3.50   0.0000     38.0025   1521.2594 -87.84     226.4485     0.679           15     0.641      0.849  0.006059689  22.1626         12
 3.50   0.0000     38.8572   1170.8073  44.41     198.0386     0.702           15     0.555      1.187  0.006060374  22.3081         13
 3.66   0.0000     42.5373    915.4800   9.22     236.4408     0.500           15     0.499      1.019  0.006051467  22.1157         14
 3.50   0.0000     59.9561   1078.5742  31.78     39667.85     1.032           15     1.016      1.444  0.006059005  16.5539         15
 3.65   0.0000     50.4391   1435.4663 -35.44     279.0269     0.502           15     0.494      1.014   0.00605558  21.9359         16
 3.50   0.0000     53.1817   1075.3824 -23.20     374.9897     0.805           15     0.662      1.094   0.00605558  21.6150         17
 3.50   0.0000    182.1936   1107.6221 -25.58     654974.5     3.772           15     3.431      4.864  0.006054895  13.5094         18
 3.50   0.0000     80.3717    537.7493  -5.75     35687.62     1.048           15     1.014      1.447  0.006057635  16.6687         19
 3.50   0.0000     75.3648    128.0521 -86.71     1749.683     0.854           15     0.739      0.890  0.006057635  19.9426         20
 3.50   0.0000     82.6959    421.4143 -72.87     316.4407     0.859           15     0.596      1.441  0.006054895  21.7993         21
 6.11   0.0000     90.9168    376.7346 -31.11     666.3289     1.024           15     0.837      3.403  0.006051468  20.9908         22
 3.50   0.0000     96.7847     56.2023 -59.33     2567.758     0.818           15     0.811      0.915  0.006053524  19.5261         23
 3.50   0.0000     91.5104    496.0167  -0.58     234.1192     0.717           15     0.500      0.917  0.006056265  22.1264         24
 3.78   0.0000     98.1249    452.8040 -11.32     471.4677     1.071           15     0.682      1.965  0.006059005  21.3664         25
 3.50   0.0000    121.9263    789.2548 -15.97     53124.23     1.058           15     1.025      1.464  0.006052839  16.2368         26
 4.06   0.0000    117.7394    154.3338  40.16     133.2625     0.544           15     0.345      1.011  0.006052839  22.7382         27
 4.56   0.0000    117.5239     67.4068  67.74     179.0067     0.501           15     0.490      1.206  0.006057635  22.4178         28
 3.96   0.0000    131.3228    418.2580 -49.63     151.6033     0.538           15     0.347      0.986   0.00605421  22.5982         29
 3.50   0.0000    147.0003    354.2470 -80.72     230.6674     0.696           15     0.645      1.207  0.006059689  22.1425         30
 3.61   0.0000    151.4800   1280.4366  71.78     198.0506     0.500           15     0.496      1.010   0.00605421  22.3081         31
 3.50   0.0000    162.3728   1468.3977 -12.55     32927.48     1.022           15     0.990      1.365  0.006054895  16.7561         32
 3.75   0.0000    155.4916     82.4820 -45.97     139.5304     0.504           15     0.496      1.030  0.006053524  22.6883         33
 3.50   0.0000    165.0217   1445.7847   0.43     682.5122     0.787           15     0.703      0.876   0.00605421  20.9647         34
 3.50   0.0000    166.9025    104.3787 -13.76     586.6597     0.847           15     0.700      0.960  0.006052839  21.1290         35
 3.50   0.0000    170.4771    877.3688 -24.55     9927.313     0.885           15     0.868      1.046  0.006054895  18.0579         36
 3.50   0.0000    171.7132    325.4172 -25.85     1213.275     0.852           15     0.815      1.004  0.006054895  20.3401         37
 3.50   0.0000    169.4062   1368.8124 -20.00     173.4818     0.687           15     0.459      1.045  0.006051468  22.4519         38
 4.05   0.0000    235.2762    403.3510 -56.41     25002.25     4.126           15     3.394      8.935  0.006052153  17.0551         39
 3.50   0.0000    181.1801    324.4292 -72.37     746.3646     0.886           15     0.871      1.468  0.006056265  20.8676         40
 4.58   0.0000    180.3201    575.5798  18.33     360.0611     0.943           15     0.573      1.971  0.006056265  21.6591         41
 3.50   0.0000    193.8262    318.1837  -6.03     181231.8     1.168           15     1.125      1.664  0.006056265  14.9044         42
 3.50   0.0000    186.6623   1355.1072 -12.09     288.8144     0.700           15     0.643      1.368  0.006052839  21.8985         43
 3.50   0.0000    192.7826   1350.5308  -5.58     918.5611     0.853           15     0.805      0.957   0.00605832  20.6422         44
 4.56   0.0000    195.3431    268.1645  17.10     212.4376     0.754           15     0.439      1.758   0.00605695  22.2319         45
 3.50   0.0000    208.9181    350.0374  39.04     892.8007     1.097           15     0.765      1.517   0.00605558  20.6731         46
 3.50   0.0000    206.8045    549.0883 -81.12      1810.05     0.807           15     0.760      0.806   0.00605421  19.9058         47
 4.44   0.0000    210.7544    827.5543  -4.74     3046.726     2.190           15     0.935      4.592  0.006057635  19.3404         48
 3.50   0.0000    203.5035    251.0098   0.06     235.9078     0.715           15     0.500      0.903  0.006053524  22.1181         49
 3.50   0.0000    210.8109    684.9264 -87.32     426.8981     0.854           15     0.720      1.478  0.006059005  21.4742         50
 3.50   0.0000    212.1967   1306.0751 -86.76     1704.765     0.809           15     0.744      0.810  0.006059005  19.9708         51
 5.90   0.0000    230.0026    561.9687  -3.90     2782.458     1.940           15     1.752      6.711   0.00605558  19.4389         52
 3.50   0.0000    222.5936    774.9836 -87.99     667.8486     0.863           15     0.719      0.943  0.006052839  20.9883         53
 4.09   0.0000    222.6281    345.6372 -40.48     531.8577     1.060           15     0.907      2.203   0.00605558  21.2355         54
 3.50   0.0000    228.8382    415.6403 -59.82     2161.516     0.934           15     0.867      1.344   0.00605832  19.7131         55
 3.50   0.0000    223.9923   1226.0446   0.55     2077.342     0.737           15     0.711      0.588  0.006057635  19.7562         56
 3.53   0.0000    244.1672    113.0579 -88.34      1116.92     1.168           15     0.777      1.814   0.00605695  20.4299         57
 3.56   0.0000    239.2120    838.8415  37.84     361.1119     0.761           15     0.676      1.477  0.006056265  21.6559         58
 3.50   0.0000    255.5057    613.0828 -34.10     2890.069     1.188           15     0.895      1.639  0.006051468  19.3977         59
 3.50   0.0000    251.7935   1372.9500 -87.02     386.5677     0.849           15     0.724      1.474  0.006059005  21.5819         60
 3.50   0.0000    259.8762    997.5461  -3.09      86268.3     1.100           15     1.050      1.547  0.006052839  15.7104         61
 3.50   0.0000    250.8616    107.4943  -4.54      386.481     0.726           15     0.669      1.044  0.006052153  21.5822         62
 3.50   0.0000    253.6643   1352.9545   2.63     235.2258     0.685           15     0.632      0.899  0.006054895  22.1213         63
 3.50   0.0000    266.0662     67.6727  -6.25     65206.04     1.074           15     1.050      1.518  0.006050782  16.0143         64
 3.50   0.0000    265.7233    123.9960  -0.35     168.3721     0.615           15     0.447      1.105  0.006056265  22.4843         65
 3.50   0.0000    270.8557   1273.7720 -47.35     332.0127     0.746           15     0.656      1.164  0.006057635  21.7471         66
 3.50   0.0000    282.0216   1522.4011  -0.35     4815.296     0.856           15     0.774      0.930   0.00605558  18.8434         67
 3.50   0.0000    287.6032   1486.5247  -9.07     19669.17     0.962           15     0.940      1.183   0.00605832  17.3155         68
 3.50   0.0000    289.9657    515.1097  27.42     1515.682     1.002           15     0.951      1.441  0.006052839  20.0985         69
 5.21   0.0000    297.1519   1414.1385 -41.70     711.8638     1.750           15     0.645      4.827  0.006053524  20.9190         70
 3.50   0.0000    293.5961   1475.6418  47.80     646.6346     0.855           15     0.787      1.018  0.006057635  21.0234         71
 3.50   0.0000    312.5960    439.5113 -36.04     219691.1     1.288           15     1.205      1.872   0.00605421  14.6955         72
 3.50   0.0000    294.0192   1327.5461  -0.06     2017.981     0.865           15     0.714      0.881  0.006057635  19.7877         73
 4.16   0.0000    292.5126    248.4423 -49.46     150.7323     0.508           15     0.488      1.101  0.006053524  22.6045         74
 3.50   0.0000    303.3094    201.8168 -12.85     15669.89     0.939           15     0.904      1.208   0.00605558  17.5623         75
 3.50   0.0000    302.3451    563.6672 -44.29     844.8826     0.852           15     0.791      1.055  0.006052839  20.7330         76
 4.63   0.0000    308.6402     85.3959  80.27     284.1541     0.981           15     0.467      2.029  0.006056265  21.9161         77
 3.50   0.0000    318.8064    905.5882 -11.57     45803.54     1.067           15     1.026      1.500  0.006051468  16.3978         78
 4.16   0.0000    322.3329    641.4796 -67.12     654.4272     1.624           15     0.716      2.913  0.006050782  21.0103         79
 3.50   0.0000    322.1700    697.3477 -12.81     11341.73     0.895           15     0.871      1.079   0.00605695  17.9133         80
 3.62   0.0000    317.1805    227.1662  42.14     216.5831     0.735           15     0.558      1.422  0.006056265  22.2109         81
 3.50   0.0000    327.6009    595.4840  -9.01     1476.158     0.906           15     0.891      1.236   0.00605558  20.1272         82
 5.03   0.0000    324.4849    955.4946  44.76     176.0586     0.512           15     0.488      1.518  0.006048038  22.4359         83
 3.78   0.0000    325.2673    341.7325  44.99     140.5096     0.517           15     0.353      0.954  0.006051468  22.6807         84
 3.50   0.0000    329.2280   1546.1112 -41.23     346.8692     0.734           15     0.650      0.984  0.006053524  21.6996         85
 3.50   0.0000    332.3817     93.1848 -67.31     425.9005     0.792           15     0.661      1.021   0.00605558  21.4767         86
 3.50   0.0000    335.0340   1440.4576   0.44     354.2316     0.727           15     0.664      0.913   0.00605695  21.6768         87
 3.50   0.0000    351.4928   1345.9336 -12.95     187420.2     1.174           15     1.154      1.728  0.006052839  14.8680         88
 3.50   0.0000    351.4919    890.9019   2.65     196477.7     1.159           15     1.156      1.720  0.006050096  14.8167         89
 3.50   0.0000    346.4391    867.0427 -63.23     6940.811     0.872           15     0.861      1.014   0.00605832  18.4465         90
 3.50   0.0000    350.1840     54.7675 -37.63     961.0113     0.828           15     0.764      0.956   0.00605695  20.5932         91
 3.67   0.0000    348.4668     42.5097 -40.99     137.2488     0.503           15     0.496      1.022  0.006052839  22.7062         92
 3.50   0.0000    355.9484    431.8481 -88.39      4986.43     0.937           15     0.852      1.243  0.006057635  18.8055         93
 3.50   0.0000    360.7476   1034.0226 -89.50     455.3342     0.790           15     0.703      0.926  0.006059005  21.4042         94
 3.50   0.0000    361.2324   1500.4402 -16.74     1923.318     0.863           15     0.815      0.987   0.00605832  19.8399         95
 3.50   0.0000    359.8575    533.1956  39.71     296.5294     0.758           15     0.662      1.267  0.006059689  21.8698         96
 3.50   0.0000    368.2189    761.1461 -12.03     11394.62     0.902           15     0.877      1.168  0.006057635  17.9082         97
 3.50   0.0000    367.5698    442.8435 -84.85     4100.726     0.865           15     0.808      0.975   0.00605832  19.0178         98
 4.03   0.0000    363.3318   1415.7358  49.43     132.7497     0.545           15     0.345      1.021  0.006052153  22.7424         99
 3.50   0.0000    375.7258    753.6906  49.74     374.1979     1.464           15     0.520      2.416  0.006051468  21.6172        100
 5.24   0.0000    369.6736    210.2996  46.47     143.4983     0.559           15     0.342      1.213  0.006050096  22.6579        101
 3.96   0.0000    373.2341   1084.0790 -36.71      345.858     0.811           15     0.651      1.607   0.00605421  21.7028        102
 3.50   0.0000    372.9349    992.5711  12.89     508.2318     0.846           15     0.699      0.937   0.00605558  21.2848        103
 3.50   0.0000    370.5015     71.9082  -2.39      220.528     0.730           15     0.500      1.142   0.00604941  22.1913        104
 3.54   0.0000    375.5398     87.4500  47.18     206.7689     0.504           15     0.492      1.000   0.00605421  22.2613        105
 3.50   0.0000    380.3604    125.9185  -5.40     288.0088     0.697           15     0.626      1.066  0.006054895  21.9015        106
 3.74   0.0000    382.5930     67.2884 -17.32      240.084     0.678           15     0.469      1.188  0.006054895  22.0991        107
 3.50   0.0000    395.3600    231.5268  -0.52     39785.49     1.039           15     1.021      1.458  0.006054895  16.5507        108
 3.50   0.0000    388.9947   1195.4945 -89.79     181.9099     0.726           15     0.500      0.995   0.00605421  22.4004        109
 3.50   0.0000    393.9053   1088.7450   1.23     1861.167     0.826           15     0.763      0.842  0.006051468  19.8755        110
 3.50   0.0000    397.1158   1461.2053   3.89     7937.318     0.857           15     0.837      1.032  0.006054895  18.3008        111
 3.50   0.0000    389.7080    260.7393 -47.62     144.6378     0.526           15     0.351      0.833  0.006052839  22.6493        112
 3.50   0.0000    398.3027    354.6313 -16.15     8992.457     0.886           15     0.866      1.065  0.006050782  18.1653        113
 5.09   0.0000    391.7090     95.6480 -41.97     160.3924     0.566           15     0.338      1.274  0.006051468  22.5370        114
 3.50   0.0000    396.6312    977.8607   8.36     264.7975     0.697           15     0.622      1.082   0.00605558  21.9927        115
 5.40   0.0000    396.9663    626.9137 -50.33     585.3946     0.776           15     0.770      2.420  0.006054895  21.1314        116
 6.12   0.0000    403.8000    526.5995  70.37     253.0296     0.752           15     0.446      2.543   0.00605695  22.0421        117
 3.50   0.0000    407.2128    282.2084  45.10      221.085     0.691           15     0.550      0.990  0.006052153  22.1886        118
 3.50   0.0000    415.7662    837.4925 -10.59     20949.49     0.976           15     0.947      1.250  0.006052153  17.2471        119
 3.50   0.0000    419.7375    433.4600  -8.53     37619.05     1.023           15     1.005      1.409  0.006053524  16.6115        120
 6.99   0.0000    413.3591   1562.3308 -46.06      205.074     0.587           15     0.327      2.181   0.00605558  22.2702        121
 3.50   0.0000    421.0593    159.0569  43.12     693.6216     1.185           15     0.839      1.867  0.006052153  20.9472        122
 5.34   0.0000    418.7148   1204.6683 -42.31     156.9244     0.555           15     0.343      1.289  0.006052153  22.5608        123
 3.50   0.0000    424.2813    926.4229 -17.02     4166.725     0.868           15     0.838      1.006   0.00605558  19.0005        124
 3.50   0.0000    419.6123   1580.7310  16.35     211.6491     0.666           15     0.469      1.006   0.00605832  22.2360        125
 3.81   0.0000    419.5503    774.5352  13.96     147.8487     0.499           15     0.497      1.065   0.00605421  22.6255        126
 3.50   0.0000    426.1671    299.8909 -46.17     203.1155     0.688           15     0.552      0.763  0.006053524  22.2806        127
 3.52   0.0000    424.4232   1064.1791  20.55     170.5653     0.697           15     0.458      1.150  0.006056265  22.4703        128
 3.50   0.0000    426.8605   1179.6385  20.10     428.3203     0.998           15     0.697      1.780  0.006056265  21.4706        129
 3.50   0.0000    438.0877    252.1659  -8.98     17247.89     0.942           15     0.908      1.279  0.006054895  17.4582        130
 3.50   0.0000    433.0063   1422.0161  -4.42     1218.957     0.715           15     0.713      0.576  0.006052839  20.3350        131
 3.50   0.0000    434.0676    151.0764  25.03     571.0896     0.720           15     0.718      0.890  0.006050096  21.1582        132
 3.53   0.0000    433.5498    406.4980 -39.19     135.9486     0.505           15     0.493      1.002  0.006048038  22.7166        133
 3.88   0.0000    467.6284    850.1495  22.23     3607.993     6.637           15     1.103     10.817  0.006057635  19.1568        134
 3.50   0.0000    440.0429    305.8197   1.22     614.4357     0.778           15     0.705      0.850  0.006056265  21.0788        135
 3.50   0.0000    445.4963    122.3596 -47.28      670.929     0.894           15     0.798      1.209  0.006050096  20.9833        136
 3.50   0.0000    443.9940    655.0388   1.48     181.7785     0.590           15     0.582      0.975  0.006056265  22.4011        137
 3.50   0.0000    444.0155    174.3318 -87.00     278.5574     0.711           15     0.636      1.263   0.00605832  21.9377        138
