#   1 KRON_RADIUS            Kron apertures in units of A or B                         
#   2 MAGERR_APER            RMS error vector for fixed aperture mag.                   [mag]
#   3 Y_IMAGE                Object position along y                                    [pixel]
#   4 X_IMAGE                Object position along x                                    [pixel]
#   5 THETA_IMAGE            Position angle (CCW/x)                                     [deg]
#   6 FLUX_APER              Flux vector within fixed circular aperture(s)              [count]
#   7 A_IMAGE                Profile RMS along major axis                               [pixel]
#   8 B_IMAGE                Profile RMS along minor axis                               [pixel]
#   9 FLUX_RADIUS            Fraction-of-light radii                                    [pixel]
#  10 FLUXERR_APER           RMS error vector for aperture flux(es)                     [count]
#  11 MAG_APER               Fixed aperture magnitude vector                            [mag]
#  12 NUMBER                 Running object number                                     
 4.48   0.0028     54.1134     63.6375   5.15      28184.7     4.168     3.795     12.302     73.15205  16.9250          1
 4.18   0.0165     17.2518    984.8208 -88.85     4816.224     3.632     1.613      8.667     73.17689  18.8432          2
 3.73   0.0232     18.7921     91.0527 -67.39     3426.063     1.546     1.431      4.028     73.20998  19.2130          3
 3.50   0.0080     15.4424   1445.5559 -62.54     9987.565     1.650     1.566      4.168     73.18516  18.0513          4
 5.77   0.3974     18.1645    384.1515  44.06      199.941     0.761     0.567      2.696     73.16861  22.2977          5
 4.27   0.1438     25.5739    366.8953 -14.68     552.3309     1.150     0.962      3.273     73.13549  21.1945          6
 3.50   0.0017     60.5962   1078.2424  76.97     45648.45     1.998     1.878      4.763     73.18516  16.4014          7
 7.73   0.2082     43.3143    915.3513 -43.40     381.3796     0.576     0.333      2.934     73.12721  21.5966          8
 3.50   0.0018     80.9674    537.4247 -67.18     44268.98     1.917     1.816      4.565     73.16033  16.4347          9
 3.50   0.0001    182.7543   1107.3114 -33.84     794631.7     5.320     4.706      9.221     73.11893  13.2996         10
 4.26   0.0605     76.0034    127.7169  10.01     1313.403     1.188     1.148      3.596     73.16033  20.2540         11
 3.50   0.0012    122.5943    788.9246 -61.36     65522.06     2.004     1.876      4.721     73.20171  16.0090         12
 4.04   0.0360     97.4281     55.9913  22.71     2206.177     1.346     1.270      4.093     73.16861  19.6909         13
 8.23   0.1037     90.8850    376.7019 -20.39     765.4082     0.956     0.688      5.219     73.07751  20.8403         14
 3.50   0.0003    194.4246    317.8832 -61.43     279123.8     2.286     2.051      4.918     73.15205  14.4355         15
 3.50   0.0021    163.1353   1468.1381 -62.55     37114.83     1.875     1.794      4.549     73.12721  16.6261         16
 3.50   0.0094    171.1655    877.1136 -49.92     8457.747     1.630     1.557      4.231     73.15205  18.2319         17
 4.79   0.0816    165.7308   1445.5076   4.02     973.2563     0.992     0.930      3.864     73.11893  20.5794         18
 5.69   0.0583    172.4128    325.0309 -77.11     1363.373     1.272     1.156      5.892     73.18516  20.2135         19
 4.93   0.1901    167.6038    104.1795 -53.71     417.8569     1.013     0.798      3.878     73.15205  21.4974         20
 4.76   0.0030    235.9160    403.1274 -54.98      26121.3     4.971     4.426     17.047     73.10236  17.0075         21
 4.98   0.0687    193.4423   1350.3160 -32.41       1156.3     1.126     0.910      3.980     73.14378  20.3923         22
 5.44   0.0218    211.5265    827.6342  -7.65     3636.039     2.457     1.586      9.527     73.14378  19.1484         23
 4.12   0.0408    207.4942    548.9372 -80.12     1945.066     1.310     1.143      3.908     73.12721  19.8277         24
 7.25   0.3360    204.4811    250.5076  36.96     236.3643     0.500     0.499      3.002     73.13549  22.1160         25
 6.64   0.0797    209.4116    349.7701  22.88     996.6281     1.196     0.965      5.458     73.18516  20.5537         26
 3.50   0.0487    213.0077   1305.9434 -30.97     1634.195     1.201     1.190      3.637     73.21825  20.0167         27
 8.44   0.1141    211.2228    684.6010 -71.57     696.2612     0.753     0.451      4.144     73.15205  20.9431         28
 5.97   0.0251    230.9360    562.0312  11.84     3169.802     2.312     2.091     10.977     73.16861  19.2974         29
 6.71   0.0264    229.8141    414.8990 -71.47     3014.215     1.710     1.547      9.725     73.13549  19.3521         30
 4.37   0.0414    224.6008   1225.8378 -85.78      1917.66     1.311     1.279      3.899     73.15205  19.8431         31
 4.83   0.0958    223.2310    774.5986 -29.44     829.0468     1.026     0.798      3.389     73.14378  20.7536         32
 3.50   0.0007    260.5680    997.2263 -60.60     119726.3     2.037     1.924      4.708     73.16033  15.3545         33
 9.13   0.0919    223.0016    345.4901 -88.29     863.7584     0.803     0.500      4.820     73.12721  20.7090         34
 3.50   0.0010    266.6997     67.3946 -76.33     83592.72     1.982     1.886      4.669     73.14378  15.7446         35
 6.52   0.0626    244.6537    112.8341  75.03     1270.448     1.395     1.155      5.850     73.17689  20.2901         36
 5.17   0.0222    256.3477    612.7624 -34.58     3578.383     1.872     1.547      7.029     73.16861  19.1658         37
 7.49   0.1130    251.4937    107.4909 -45.11     702.6219     0.506     0.494      3.033     73.09408  20.9332         38
 8.17   0.1153    252.6854   1372.6636 -43.97     688.8869     0.570     0.337      3.174     73.11893  20.9546         39
 3.50   0.0002    313.2004    439.2152 -61.04     342891.3     2.247     2.086      4.853     73.14378  14.2121         40
 3.50   0.0040    288.3480   1486.2738 -54.17     19815.82     1.751     1.674      4.365     73.11065  17.3075         41
 3.50   0.0181    282.7493   1522.1841 -61.33     4400.716     1.460     1.360      3.913     73.19344  18.9412         42
 5.11   0.0443    290.6356    514.7411 -36.50      1792.32     1.462     1.311      5.435     73.16861  19.9165         43
 3.50   0.0054    303.9778    201.5832 -66.85     14618.22     1.714     1.615      4.285     73.15205  17.6378         44
 3.50   0.0014    319.4937    905.2718 -62.35      57708.6     1.956     1.848      4.593     73.11893  16.1469         45
 4.02   0.0420    294.7511   1327.3948  47.22     1893.304     1.274     1.263      3.952     73.20998  19.8569         46
 6.28   0.0648    294.3224   1475.1021  11.40     1224.765     0.727     0.658      3.512     73.10236  20.3299         47
 8.31   0.0767    297.8722   1413.8578 -46.31     1035.792     0.853     0.671      5.119     73.12721  20.5118         48
 3.50   0.0003    352.2238    890.5839 -55.85     304099.3     2.209     2.073      4.828     73.15205  14.3425         49
 3.50   0.0003    352.2397   1345.7283 -55.48     293030.7     2.185     2.061      4.794     73.16033  14.3827         50
 6.53   0.0924    303.0704    563.5995 -17.06     860.2622     1.007     0.742      4.548     73.19344  20.7134         51
 3.50   0.0080    322.8800    697.1052 -48.65     9895.972     1.600     1.557      4.314     73.10236  18.0614         52
 7.23   0.0835    322.3919    640.9913 -72.88     951.0601     1.533     0.349      3.910     73.12721  20.6045         53
 4.85   0.0426    328.2270    595.3594  12.77     1866.717     1.342     1.284      5.113     73.19344  19.8723         54
 3.88   0.0120    347.1299    866.8550 -43.34     6635.667     1.633     1.498      4.520     73.12721  18.4953         55
 6.55   0.1806    332.9962     93.4646 -88.40     440.2408     0.778     0.498      3.474     73.20171  21.4408         56
 5.92   0.2974    336.1976   1440.3890  71.88     267.0526     0.728     0.454      2.878     73.13549  21.9835         57
 3.94   0.0152    356.6004    431.5988 -75.33     5225.498     1.788     1.580      4.920     73.17689  18.7547         58
 4.14   0.0775    350.8954     54.4239  75.90     1024.486     1.126     0.959      3.749     73.14378  20.5237         59
 3.50   0.0079    368.9802    760.8908 -58.40        10008     1.598     1.559      4.196     73.14378  18.0491         60
 3.76   0.0202    368.2882    442.6587 -56.28     3928.805     1.435     1.336      4.031     73.11893  19.0643         61
 3.62   0.0416    362.0505   1500.2076 -24.28     1912.212     1.284     1.149      3.674     73.19344  19.8462         62
 5.05   0.1296    361.3106   1033.9282 -13.90     612.9315     0.739     0.661      3.273     73.11893  21.0815         63
 3.50   0.0016    396.0200    231.2718 -61.09     48743.71     1.874     1.819      4.548     73.20171  16.3302         64
 5.48   0.1088    373.7695    992.0414 -88.68     730.2803     0.894     0.751      3.940     73.19344  20.8913         65
 3.50   0.0114    397.8937   1461.0099 -39.50     6965.634     1.563     1.472      4.115     73.14378  18.4426         66
 3.50   0.0102    399.0078    354.3785 -71.51     7823.417     1.585     1.493      4.073     73.15205  18.3165         67
 3.66   0.0479    394.5766   1088.5724 -29.99     1658.953     1.284     1.233      3.818     73.16861  20.0004         68
 3.50   0.0037    416.4507    837.1747 -64.92     21566.57     1.798     1.680      4.383     73.20171  17.2155         69
 3.50   0.0018    420.3988    433.1456 -58.39     44569.29     1.886     1.783      4.549     73.20998  16.4274         70
 3.75   0.0209    425.0381    926.1504 -47.65     3804.133     1.483     1.353      4.233     73.16861  19.0994         71
 3.50   0.0050    438.7664    251.9352 -45.10     15996.28     1.713     1.632      4.325     73.16033  17.5400         72
 6.61   0.0844    421.7399    158.5126  -7.53     940.9418     1.013     0.987      5.581     73.11893  20.6161         73
 3.50   0.0006    461.8574    807.3825 -54.53     137987.8     2.057     1.941      4.693     73.16861  15.2004         74
 3.76   0.0586    433.8073   1421.8584  31.89     1355.657     1.177     1.104      3.555     73.20998  20.2196         75
 8.40   0.1356    427.5076   1179.4756  48.21     585.4125     0.502     0.497      3.012     73.11065  21.1313         76
 6.16   0.1141    434.9740    150.9762  35.97     696.4223     0.787     0.769      4.175     73.17689  20.9428         77
 4.40   0.1121    440.6718    305.3953 -46.54     708.9501     0.991     0.875      3.664     73.19344  20.9235         78
 3.73   0.0151    451.1180     21.1858 -35.06     5273.986     1.529     1.416      4.234     73.17689  18.7447         79
 5.41   0.0189    468.5997    850.2263  23.11     4210.894     5.828     1.566     15.125     73.14378  18.9891         80
 6.23   0.0825    446.1815    121.9023 -14.29     962.2809     1.080     0.836      5.185     73.14378  20.5917         81
 3.57   0.0140    458.6487     34.3971 -57.41      5678.24     1.520     1.448      4.043     73.20998  18.6645         82
 8.14   0.0859    448.2517    883.8757  -7.80     924.5521     1.041     0.643      5.729     73.11065  20.6352         83
 3.80   0.0453    464.5070    468.4641 -52.99     1754.368     1.324     1.266      3.829     73.13549  19.9397         84
 5.86   0.1303    461.8690   1096.1428  45.45     609.3951     0.823     0.671      3.881     73.12721  21.0878         85
 3.98   0.0354    472.9391    734.7498 -68.45     2243.698     1.361     1.217      4.218     73.14378  19.6726         86
 4.43   0.0500    472.1027    253.9982 -64.88     1588.714     1.241     1.108      4.063     73.14378  20.0474         87
 3.50   0.0273    478.7898    922.8477 -20.02     2907.438     1.403     1.353      3.750     73.19344  19.3912         88
 4.07   0.0670    478.8117   1276.7957 -50.21     1185.177     1.136     1.024      3.852     73.12721  20.3655         89
 3.50   0.0651    485.0125   1070.3956 -46.82     1220.641     1.195     1.127      3.399     73.12721  20.3335         90
 5.91   0.0353    496.9854     82.8541  55.90     2250.766     1.818     1.496      7.936     73.19344  19.6692         91
 5.91   0.0405    496.5325   1187.0388 -13.62      1960.83     2.128     1.330      7.779     73.16033  19.8189         92
 3.50   0.0068    513.2896   1302.2393 -42.36     11630.97     1.658     1.592      4.168     73.12721  17.8860         93
 4.84   0.0054    533.8892    518.5785  30.84     14730.68     3.346     2.728     11.428     73.15205  17.6294         94
 6.60   0.0644    505.0350    762.6558 -88.65     1233.601     1.252     1.016      6.485     73.16861  20.3221         95
 4.63   0.1216    502.7391    863.4894 -40.17     653.3054     0.963     0.954      3.586     73.12721  21.0122         96
 6.18   0.1735    499.0000    365.9927   0.00      457.601     0.843     0.289      2.127     73.12721  21.3988         97
 5.71   0.0302    516.2209   1461.1857  26.90     2629.643     2.828     1.249      9.222     73.14378  19.5003         98
 5.94   0.1750    502.4906   1309.9664  -3.30     453.8762     0.785     0.499      3.238     73.13549  21.4077         99
 4.97   0.0435    514.1891   1310.0686  12.56     1826.986     1.453     1.166      5.019     73.20171  19.8957        100
 7.49   0.0902    510.6530    165.5925   6.25     881.4639     1.008     0.636      5.287     73.21825  20.6870        101
 4.21   0.0996    514.4960   1179.0830 -43.70     796.9863     1.130     0.881      3.428     73.08579  20.7964        102
 6.59   0.1296    520.1537    641.3141 -60.97     612.8285     0.857     0.594      3.940     73.14378  21.0817        103
 4.14   0.0496    541.0002    999.6945 -62.31     1600.987     1.250     1.160      3.846     73.14378  20.0390        104
 3.50   0.0003    588.6879   1315.8539 -55.49       315201     2.187     2.068      4.762     73.11893  14.3035        105
 3.68   0.0337    559.7887   1041.5302 -54.92     2358.218     1.373     1.305      4.069     73.19344  19.6185        106
 3.60   0.0113    573.4073   1242.7402 -36.74     7049.306     1.543     1.528      4.135     73.20998  18.4296        107
 3.50   0.0083    581.4571    144.8192 -63.56     9525.333     1.639     1.537      4.269     73.16861  18.1028        108
 5.40   0.0476    571.8488     45.7987  65.71     1670.652     1.497     1.163      5.588     73.20998  19.9928        109
 7.49   0.1452    565.9841    139.5040 -87.66     547.1903     0.791     0.499      4.056     73.15205  21.2047        110
 5.53   0.0506    572.0419   1447.5493  18.02     1571.151     1.733     1.229      6.576     73.17689  20.0595        111
 3.50   0.0083    583.0026    319.0012 -42.00     9604.529     1.607     1.563      4.260     73.17689  18.0938        112
 3.50   0.0001    631.9539    483.1635 -57.26     561698.4     2.648     2.496      5.179     73.18516  13.6762        113
 5.70   0.0554    575.7169   1336.6877 -52.10     1433.174     1.150     1.091      5.238     73.11065  20.1593        114
 5.48   0.0169    597.8709    782.6802 -74.06     4707.014     2.429     2.215     10.049     73.11893  18.8681        115
 8.26   0.1373    577.3349   1001.3214 -45.62     578.1815     0.573     0.336      3.437     73.11065  21.1448        116
 5.50   0.0967    585.4738     75.7457 -67.57     821.1544     0.965     0.954      4.146     73.12721  20.7639        117
 5.11   0.1031   1000.6995   1273.7892 -23.88     770.3836     1.129     1.019      3.671     73.12721  20.8332        118
 6.74   0.0818   1598.4836    654.9836 -35.24     795.0446     1.182     0.755      5.051      59.8567  20.7990        119
 6.67   0.1559   1595.9614    374.0274  41.76     472.9174     0.803     0.781      4.370     67.90553  21.3630        120
 4.97   0.0452   1030.9441    302.6436  65.88     1758.525     1.852     1.356      6.659     73.15205  19.9371        121
 3.50   0.0028    985.6684    558.4529 -53.00     28661.25     1.772     1.703      4.518     73.12721  16.9068        122
 5.84   0.0508    987.3660    453.8745 -69.95     1563.963     1.342     1.151      6.480     73.14378  20.0644        123
 5.99   0.0817    981.6799    797.8624 -17.31     972.1985     1.182     0.957      5.025     73.11065  20.5806        124
 6.62   0.1261    979.0314    452.5188  89.17     630.1829     0.783     0.500      3.704     73.15205  21.0513        125
 6.68   0.1856    965.8215    416.1882 -42.86      427.947     0.760     0.564      3.992     73.15205  21.4715        126
 7.04   0.1009    952.0219    654.1979   4.29     787.2887     0.935     0.751      5.402     73.16033  20.8097        127
 6.46   0.1119    948.6243    445.2148 -17.64      709.798     0.743     0.450      3.146     73.15205  20.9222        128
 4.52   0.0458    939.9567   1066.9950 -68.97     1736.959     1.243     1.183      4.248     73.18516  19.9505        129
 7.30   0.1190    939.0000    516.0090   0.00     667.1434     0.850     0.289      3.226     73.12721  20.9895        130
 3.50   0.0054    930.5116   1178.4536 -45.18     14703.86     1.683     1.645      4.456     73.11893  17.6314        131
 4.77   0.0802    929.1415   1322.3268  77.80     990.1511     1.175     1.037      3.942     73.12721  20.5607        132
 5.03   0.0900    913.6597    838.4653 -71.80      882.168     1.086     0.994      4.216     73.13549  20.6861        133
 6.17   0.1722    913.1230   1000.8743  43.79     461.0979     0.820     0.671      4.191     73.11893  21.3905        134
 8.68   0.2201    905.6592   1315.3329  45.32     360.8569     0.580     0.332      3.299     73.13549  21.6567        135
 3.50   0.0129    901.2381    302.7928 -69.84     6161.128     1.533     1.467      4.104     73.16861  18.5758        136
 3.50   0.0001    882.8272    183.6641 -39.56     798446.4     3.801     3.437      6.216     73.16861  13.2944        137
 5.65   0.0562    897.0488    538.2656   9.28     1412.998     1.371     1.213      5.936     73.14378  20.1746        138
 7.63   0.1928    894.9872   1425.7455 -89.31     412.2438     0.680     0.436      3.606     73.19344  21.5121        139
 4.91   0.0203    880.3037    224.4290  89.77     3906.896     6.075     1.576     14.321     73.11893  19.0704        140
 7.12   0.0884    889.8623    325.2966  21.97     898.4355     0.959     0.675      5.346     73.11065  20.6663        141
 3.50   0.0007    881.0632   1592.5182 -59.42     111023.8     1.984     1.890      4.686     73.11065  15.4365        142
 4.97   0.1138    886.4539   1500.2401 -30.10     697.8497     1.097     0.931      3.909     73.15205  20.9406        143
 7.16   0.1578    886.5475   1304.7545  58.27       503.37     1.054     0.816      3.645     73.16033  21.2953        144
 6.70   0.0732    878.9013   1177.0784  56.73     1083.935     1.248     1.121      5.611     73.10236  20.4625        145
 5.94   0.2414    878.3253    960.7850 -76.58     329.3607     0.962     0.858      2.949     73.21825  21.7558        146
 4.98   0.0317    870.2983   1103.6595 -66.59     2502.277     1.675     1.512      5.502     73.10236  19.5542        147
 3.50   0.0003    860.0699   1224.5084 -53.73     292937.8     2.187     2.076      4.877     73.11893  14.3831        148
 6.06   0.0827    868.7755    939.6843  20.35     960.8287     1.410     1.024      6.072     73.16033  20.5934        149
 6.07   0.1068    860.3856   1157.3900 -40.75     743.8625     1.043     0.950      4.782     73.12721  20.8713        150
 6.11   0.1356    859.2457   1339.6561 -65.63     586.0065     1.116     0.876      4.263     73.15205  21.1302        151
 7.31   0.0996    845.3869   1206.3982 -18.93     797.8463     0.968     0.807      5.358     73.14378  20.7952        152
 6.09   0.1602    845.9082   1063.6815 -35.52     495.7066     0.984     0.825      4.110     73.13549  21.3119        153
