#   1 KRON_RADIUS            Kron apertures in units of A or B                         
#   2 Y_IMAGE                Object position along y                                    [pixel]
#   3 MAG_BEST               Best of MAG_AUTO and MAG_ISOCOR                            [mag]
#   4 FLUX_BEST              Best of FLUX_AUTO and FLUX_ISOCOR                          [count]
#   5 X_IMAGE                Object position along x                                    [pixel]
#   6 THETA_IMAGE            Position angle (CCW/x)                                     [deg]
#   7 A_IMAGE                Profile RMS along major axis                               [pixel]
#   8 B_IMAGE                Profile RMS along minor axis                               [pixel]
#   9 MAGERR_BEST            RMS error for MAG_BEST                                     [mag]
#  10 NUMBER                 Running object number                                     
#  11 FLUXERR_BEST           RMS error for BEST flux                                    [count]
 4.06     54.7854  16.4414     43999.44     63.6141  10.86     5.365     4.865   0.0050          1     201.5104
 4.05     18.2135  18.6429     5792.029    984.9620 -89.85     4.237     2.095   0.0219          2     116.8546
 4.10     19.4714  19.0790     3876.238     91.2174 -50.22     1.811     1.786   0.0200          3      71.2709
 3.50     16.2576  18.0242     10240.18   1445.6405  10.92     2.069     1.951   0.0072          4     68.27317
 5.88      5.8206  21.5405     401.5876    145.2245  -0.38     1.171     0.700   0.1387          5     51.27777
 3.50     61.4063  16.3390     48349.77   1078.3906  60.70     2.429     2.331   0.0018          6     80.15064
 7.15     11.4045  22.6103     149.9309   1183.2152  19.09     0.760     0.448   0.2882          7     39.79474
 6.20     19.1504  21.5304     405.3691    384.5094   6.20     1.294     0.940   0.1763          8     65.82211
 6.18     26.2150  20.6952     874.8354    366.8643  22.57     1.520     1.277   0.1034          9     83.25911
 8.14     25.4828  21.8115     312.8934    382.6798  34.64     1.089     0.824   0.2574         10     74.14753
 6.45     36.5190  21.3323     486.5114   1110.6578 -49.38     1.297     0.966   0.1558         11     69.78813
 6.19     34.8937  21.1671     566.4731    326.7797  -6.17     1.759     1.173   0.1650         12     86.08225
 3.50     81.5333  16.3911     46086.31    537.4374  -8.76     2.426     2.341   0.0019         13     80.15064
 6.56     40.7101  21.9153     284.3748   1170.5583  40.85     1.270     0.507   0.1958         14     51.27777
 5.84     40.0144  21.9746     269.2617   1521.2733  85.98     0.741     0.661   0.1650         15     40.90551
 5.97     44.3194  21.9633     272.0668    915.1635 -57.45     1.037     0.830   0.2171         16     54.38829
 8.83     45.6943  21.8406     304.6125    440.3448  43.14     0.570     0.337   0.1350         17     37.87114
 3.86     76.6940  20.0999     1513.689    128.1458 -36.54     1.719     1.565   0.0440         18     61.35826
 6.39     91.3040  20.7049     867.0673    376.7011  59.93     2.277     1.590   0.1478         19     117.9997
 5.62     84.3886  21.5145     411.3528    421.1944 -71.75     1.543     1.097   0.1871         20     70.85042
 3.50    123.3941  15.9608     68496.77    788.9817   1.93     2.491     2.407   0.0013         21     82.53824
 4.29     98.1545  19.6524     2285.775     56.0174  -2.94     1.876     1.626   0.0343         22     72.10451
 6.22     99.8760  20.9857     669.4525    452.8296  11.32     1.469     1.252   0.1321         23     81.44497
 5.77     92.9685  21.9764     268.8156    495.7600  -1.84     0.890     0.757   0.1848         24     45.73375
 7.44    118.7651  22.7150     136.1392    990.2153  56.24     0.770     0.712   0.4250         25     53.27821
 7.94    118.3204  22.9113     113.6257    415.3350 -44.33     0.572     0.336   0.3304         26     34.57146
 3.50    163.8909  16.5839     38588.64   1468.2533 -12.36     2.297     2.242   0.0022         27      76.5272
 8.54    132.4837  22.1549     228.0621    418.0073   0.90     0.791     0.500   0.2442         28     51.27777
 3.62    171.7659  18.1995     8713.569    877.2239 -65.04     2.104     2.045   0.0091         29     73.13316
 5.02    152.7571  22.7005     137.9718   1280.5729  70.56     0.724     0.458   0.2151         30     27.33114
 3.53    167.9653  21.2170     541.0248    104.0224 -78.63     1.477     1.352   0.0969         31     48.27642
 6.26    166.7164  20.9881     667.9845   1445.8735  25.87     1.481     1.385   0.1411         32     86.77369
 6.54    161.5322  24.5705      24.6488    634.5322  45.00     0.509     0.489   1.3624         33     30.92166
 6.44    170.4764  22.0628     248.2548   1368.4977   1.76     0.962     0.894   0.2575         34     58.87308
 6.49    170.4273  22.8869      116.214    651.2307  19.56     0.769     0.448   0.3350         35     35.84446
 7.24    181.4357  22.1528     228.5057    575.3188  32.57     1.271     0.859   0.3485         36     73.33715
 5.24    194.1731  20.6385     921.6921   1350.5505 -52.42     1.469     1.346   0.0842         37     71.48021
 6.58    188.1913  21.5229     408.1749   1354.9642  38.80     1.031     0.844   0.1587         38     59.62951
 4.47    212.4319  18.9240      4471.08    827.3854 -12.54     4.254     2.183   0.0320         39     131.7576
 4.70    208.1951  19.9448     1746.063    548.9749 -54.46     1.677     1.562   0.0461         40     74.14753
 3.50    213.7668  20.0268      1619.13   1306.0121  -5.55     1.672     1.540   0.0363         41      54.1129
 5.56    232.0003  18.9762     4260.968    561.9341 -29.94     3.527     3.152   0.0458         42     179.5554
 3.50    267.4318  15.6900     87905.52     67.5887   4.05     2.519     2.455   0.0011         43     85.03456
 5.22    212.3623  21.3670     471.1902    684.2392 -21.57     1.588     1.414   0.1750         44     75.93927
 3.50    261.3217  15.5061     104123.2    997.3779 -21.97     2.507     2.488   0.0009         45     85.21007
 3.57    225.6275  19.7315     2125.275   1226.0277  56.39     1.639     1.513   0.0281         46     54.93492
 4.82    224.2253  21.2152     541.8986    774.7047 -64.76     1.485     1.273   0.1287         47     64.21365
 5.37    245.7519  20.1023     1510.393    112.9574 -84.19     2.268     1.820   0.0757         48      105.287
 4.73    256.7946  19.0976     3810.459    612.8154 -30.55     2.748     2.239   0.0324         49     113.7449
 6.37    240.4774  21.3356      485.028    838.2289  -1.00     1.566     1.476   0.2095         50     93.56676
 6.42    253.0003  21.3156     494.0372   1372.7172 -71.85     1.388     1.020   0.1254         51     57.06307
 7.14    251.7136  21.5599     394.4807    107.6560 -47.45     1.285     0.961   0.1098         52     39.87509
 3.50    289.1075  17.2809        20306   1486.3608   1.53     2.188     2.127   0.0039         53     73.54058
 7.65    254.4976  23.1100     94.62523   1352.0000  31.85     0.805     0.311   0.2160         54     18.82148
 3.60    283.4612  18.9699     4285.999   1522.2333  52.35     1.853     1.816   0.0162         55     63.98056
 8.02    266.9816  24.5451     25.23315    123.0000  90.00     0.858     0.289   1.7127         56     39.79474
 6.63    272.2898  21.4428     439.4026   1273.7919   3.53     1.216     0.928   0.1693         57     68.49165
 3.50    304.5837  17.6056      15057.7    201.6434   9.84     2.209     2.162   0.0053         58     73.74345
 5.28    294.7334  20.8223     778.1502   1475.5226 -23.87     1.490     1.372   0.0975         59     69.86738
 4.40    303.5009  21.1015     601.7338    563.4193 -19.54     1.662     1.501   0.1216         60     67.39219
 3.50    323.5641  18.0777     9748.485    697.2144  48.95     2.098     2.084   0.0079         61     70.85042
 8.21    294.2909  22.7452     132.4095    247.3220 -43.16     0.553     0.344   0.2835         62     34.57146
 8.21    309.9417  21.0512     630.2609     85.7309 -48.00     1.182     0.645   0.1191         63     69.14293
 5.55    322.5255  20.8337     770.0173    641.3193  77.65     1.952     1.534   0.1320         64     93.56676
 5.15    328.8730  19.9692     1707.355    595.4155 -35.20     1.939     1.713   0.0582         65      91.4675
 5.86    331.2283  22.3100     197.7056   1545.7670  43.51     1.148     0.833   0.3062         66     55.74481
 6.09    333.6950  21.5878     384.4711     93.5791  55.69     0.971     0.940   0.1612         67      57.0691
 5.25    351.3244  20.7520     830.2532     54.6837  61.37     1.405     1.282   0.0893         68     68.27317
 3.68    369.6347  18.0336     10152.36    760.9844  20.92     2.099     2.041   0.0079         69     73.74345
 3.50    396.6434  16.2861     50764.54    231.3520 -26.42     2.431     2.344   0.0017         70     80.52258
 4.58    362.7214  20.0186     1631.424   1500.1469   1.09     1.885     1.588   0.0511         71     76.72218
 6.58    362.1609  22.1175     236.0571   1033.3594 -58.97     1.241     0.995   0.3250         72     70.63924
 6.42    376.5254  20.7285     848.3727    753.3805  48.83     1.997     1.131   0.0988         73     77.19098
 5.64    381.7092  23.0865     96.69775      1.5745 -88.36     2.138     0.633   0.5920         74      52.7144
 5.73    375.3517  21.5649     392.6666   1083.9893 -64.08     1.453     1.092   0.1936         75     70.00188
 6.92    371.3849  21.6854     351.4401     72.0737  -4.98     1.328     0.618   0.1850         76     59.87953
 7.68    370.4340  22.2889     201.5726    209.7979 -20.41     0.757     0.448   0.2356         77     43.72983
 3.50    399.6176  18.2825     8072.081    354.4628  17.25     2.015     1.927   0.0090         78     66.94735
 3.50    398.5452  18.4762     6753.262   1461.0853  -1.85     1.953     1.880   0.0103         79     64.21365
 5.48    384.9274  22.2520     208.5503     67.2584  84.64     1.574     0.663   0.2803         80     53.83611
 5.96    376.7703  22.3156      196.682     87.0265   1.14     0.694     0.420   0.1680         81     30.43467
 6.77    382.1244  22.0528     250.5529    125.8206 -25.56     0.976     0.759   0.2496         82     57.59029
 4.02    395.3357  19.9805     1689.717   1088.6277  16.79     1.645     1.542   0.0397         83     61.84332
 7.53    397.2801  21.0642     622.7781    626.6414 -84.29     1.368     1.024   0.1507         84     86.42866
 6.06    413.7102  21.3467     480.0696      1.9376  88.84     2.794     0.912   0.1736         85     76.72218
 5.80    390.9907  22.5710     155.4578   1196.0000  90.00     0.849     0.289   0.1831         86     26.21511
 7.06    405.4550  21.5190     409.6493    526.5231  81.85     1.415     0.997   0.2159         87     81.44497
 3.50    462.6592  15.1520     144281.1    807.5481 -14.75     2.549     2.471   0.0006         88     85.73444
 3.50    439.4121  17.5149     16370.32    252.0300   6.63     2.198     2.152   0.0049         89     73.94577
 6.39    408.1780  22.1955     219.6752    281.9645  29.19     1.164     0.805   0.2923         90      59.1263
 5.73    422.2335  20.6239     934.2385    159.3221  51.63     1.823     1.388   0.1032         91      88.8157
 6.58    427.0642  22.5480     158.7743    299.6302  84.40     1.385     0.613   0.4009         92     58.61877
 7.34    419.4577  21.7498     331.1887   1204.3013  -8.30     1.015     0.481   0.1653         93     50.39614
 7.02    428.1476  20.9619     684.2731   1179.8237  43.93     1.268     1.091   0.1272         94     80.15064
 4.39    434.3699  20.2976     1261.725   1421.9888 -10.82     1.560     1.399   0.0417         95     48.45079
 8.46    424.2213  22.1311     233.1089    133.4180  71.45     0.751     0.455   0.2220         96     47.65348
 5.96    421.4902  22.7807     128.1539   1580.9540   2.68     0.778     0.499   0.3073         97     36.25886
 8.25    421.6680  22.1044     238.9073    136.3273  45.21     0.574     0.335   0.1610         98     35.42521
 7.29    425.5192  22.3819     185.0229   1063.4724  46.62     0.503     0.496   0.2128         99     36.25886
 8.39    431.2661  21.4994     417.1016    718.8472  67.24     1.078     0.508   0.1566        100     60.12851
 6.61    428.4362  19.4740     2694.037    432.8666  -1.42     3.052     0.580   0.0292        101     72.48546
 4.77    469.1457  18.3845     7348.622    850.1890  21.91     7.491     2.172   0.0276        102     186.7339
 4.02    451.8686  18.7410     5291.834     21.3246   5.41     2.100     1.955   0.0161        103     78.26448
 5.98    435.1284  21.3812     465.0696    151.0912  52.00     1.240     1.134   0.1610        104     68.92652
 5.40    441.5390  21.3263     489.1895    305.5747 -51.09     1.441     1.138   0.1491        105     67.17014
 5.43    446.8850  20.6731     892.7839    122.1028  85.16     1.505     1.355   0.0912        106     74.94915
 6.24    435.6659  22.7170     135.8978    353.6778 -45.54     0.573     0.336   0.2227        107     27.87241
 3.92    459.3049  18.6394     5810.751     34.4913 -43.25     1.983     1.870   0.0137        108     73.13316
 8.32    445.0175  23.1906     87.85498    654.3727 -25.27     1.075     0.452   0.6924        109     56.01217
 3.68    465.1302  19.9162     1792.804    468.4329  46.31     1.735     1.537   0.0355        110     58.61877
 5.36    454.5111  22.4503     173.7269   1533.5862   2.60     0.992     0.775   0.2818        111     45.07568
 3.85    462.4621  21.3958      458.843   1096.4276  13.24     1.424     1.022   0.1075        112      45.4059
 6.23    454.6659  23.0739     97.81836   1224.3201  45.65     0.572     0.336   0.3094        113     27.87241
 4.18    473.5636  19.6879     2212.246    734.7416 -32.28     1.675     1.672   0.0335        114     68.27317
 7.77    463.4885  21.9543     274.3289    723.9955 -62.96     1.225     0.497   0.2390        115     60.37647
 4.28    473.0175  20.0773     1545.542    254.3179   2.68     1.614     1.461   0.0450        116     63.98056
 3.50    479.3950  19.4134     2848.646    922.8692  50.14     1.739     1.690   0.0221        117     57.84912
 4.18    479.2153  20.5644     986.8309   1276.8652  88.29     1.667     1.470   0.0699        118     63.51184
 6.15    468.1647  22.4737      170.024   1198.3262 -25.50     0.748     0.647   0.2659        119     41.62955
 4.99    489.4695  21.1639      568.127    839.3799 -85.63     2.556     0.978   0.1474        120     77.11064
 5.00    497.6219  19.5653     2476.652     82.7204 -14.39     2.586     2.443   0.0534        121     121.8614
 4.48    497.1443  19.6783     2231.966   1186.5587 -19.24     2.871     2.197   0.0529        122     108.7766
 5.27    477.6234  22.8654     118.5305   1167.6362 -32.52     1.409     0.553   0.4130        123     45.07568
 3.50    485.5691  20.3177     1238.603   1070.7618 -13.29     1.529     1.376   0.0434        124     49.49881
 3.50    480.5318  22.1115     237.3666    682.5682 -19.27     0.922     0.768   0.1347        125     29.43654
 4.19    532.4379  17.5907     15266.26    518.7012  17.05     4.773     2.905   0.0086        126     121.1149
 5.92    483.2268  22.6663     142.3956   1309.2524  17.63     0.842     0.349   0.2321        127     30.43467
 7.04    490.9982  22.5795     154.2377    424.4974  57.39     0.783     0.319   0.2373        128     33.69609
 4.88    505.6880  20.4062      1141.62    762.6530  29.68     1.866     1.696   0.0804        129     84.50584
 6.07    499.2487  21.7533     330.1404    366.5008  48.61     1.260     0.822   0.1970        130     59.87953
 3.50    503.6251  21.0396     637.0449    863.6788  17.99     1.349     1.193   0.0722        131     42.34122
 4.09    516.8408  19.3116     3128.627   1461.1042  25.64     3.620     1.834   0.0355        132     102.4098
 6.42    511.4173  20.7695     816.9713    164.7969  15.76     2.143     1.304   0.1390        133     104.5751
 3.50    504.0078  23.1401     92.03894    442.7247 -86.66     0.742     0.697   0.2811        134     23.82674
 3.88    515.1553  21.0082     655.7452   1179.1432 -11.58     1.351     1.290   0.0825        135     49.79971
 3.70    520.8367  21.4656      430.275    642.2778   1.63     1.390     1.164   0.1154        136     45.73375
 7.78    522.2990  22.6151       149.27    854.1040 -68.91     0.955     0.691   0.4428        137     60.86934
 6.15    519.8758  22.3496     190.6113   1519.3197  20.54     0.920     0.674   0.2697        138     47.33893
 3.50    541.7062  19.9437     1747.843    999.6561 -28.16     1.600     1.510   0.0322        139      51.8572
 5.95    537.3939  22.0503     251.1106    404.2004  25.92     1.629     0.795   0.2847        140     65.82211
 3.50    560.4191  19.6117     2373.107   1041.6516  18.47     1.867     1.613   0.0271        141      59.1263
 4.94    572.7739  20.0945     1521.267     45.8521  54.85     2.131     1.762   0.0666        142     93.24687
 3.50    573.2246  20.0207     1628.235   1448.4399  29.55     2.441     1.841   0.0481        143     72.10451
 3.56    583.6990  18.0855     9678.325    319.1047  10.28     2.100     2.028   0.0080        144     70.85042
 3.50    582.1724  18.0950      9593.59    144.8971   4.15     2.088     1.978   0.0079        145     69.57373
 6.41    557.7811  22.4053     181.0851    778.6027  72.66     0.764     0.454   0.2150        146     35.84446
 4.04    598.1440  18.4977     6620.906    782.6210 -52.42     3.563     3.261   0.0219        147     133.2236
 5.76    566.2109  21.6203     373.1305    139.6721 -56.27     1.261     1.043   0.1862        148     63.98056
 6.78    568.5834  23.0672     98.43176    633.2251 -19.07     0.738     0.455   0.4135        149     37.47458
 6.26    578.0512  20.8528     756.6143   1001.7804 -28.13     1.682     0.817   0.1014        150     70.63924
 5.30    586.1544  20.9278     706.1223     75.9674  -8.76     1.328     1.229   0.1009        151     65.59474
 3.95   1002.9375  19.4214     2827.745    542.3767  41.74     1.957     1.741   0.0270        152     70.42743
 4.10   1598.2117  20.7808     808.5332    654.3484  -3.12     1.918     1.218   0.0723        153     53.83611
 3.70   1595.8204  21.1328     584.6409    373.5580  36.47     1.480     1.018   0.0837        154     45.07568
 6.34   1594.4935  21.3844     463.7205   1384.2332 -29.70     1.436     0.913   0.1634        155     69.78813
 4.80   1586.2162  20.3051     1253.039   1108.5291  10.82     1.709     1.419   0.0629        156     72.51772
 4.54   1567.9301  19.8291     1942.582     21.5654   3.80     1.823     1.751   0.0436        157     78.07336
 5.33   1567.0110  20.0123     1640.848    784.3434 -85.86     2.030     1.671   0.0629        158     94.99292
 5.50   1529.7546  22.2266     213.4799    733.4183 -70.72     0.745     0.453   0.1597        159     31.40109
 6.53   1516.6896  21.1398     580.8668   1546.3409 -54.01     1.328     1.063   0.1401        160     74.94915
 3.50   1508.4398  16.7606     32790.63    269.0288   0.55     2.425     2.347   0.0027        161     81.81102
 3.50    878.8604  21.1086     597.8303    960.9188 -38.71     1.204     1.126   0.0723        162     39.79474
 6.82    880.5679  22.0878     242.5931    670.7686  20.31     0.733     0.453   0.1678        163     37.47458
 8.15    878.4954  21.8316     307.1465    542.0081   1.12     0.795     0.500   0.1792        164     50.69172
 3.76    870.8542  19.4002     2883.432   1103.3297 -62.93     2.030     2.002   0.0276        165     73.33715
 4.19    868.9675  20.4936     1053.351    939.8438  48.58     1.862     1.435   0.0688        166     66.72382
 6.09    870.7626  22.0544     250.1738    643.2283 -45.21     0.935     0.438   0.1644        167     37.87114
 7.86    868.9410  23.1898     87.91833    454.3015  62.52     0.908     0.211   0.4217        168     34.13659
 3.50    861.9903  22.8530     119.8917   1554.1732 -54.13     0.917     0.472   0.2101        169     23.19124
