#   1 KRON_RADIUS            Kron apertures in units of A or B                         
#   2 Y_IMAGE                Object position along y                                    [pixel]
#   3 MAG_BEST               Best of MAG_AUTO and MAG_ISOCOR                            [mag]
#   4 FLUX_BEST              Best of FLUX_AUTO and FLUX_ISOCOR                          [count]
#   5 X_IMAGE                Object position along x                                    [pixel]
#   6 THETA_IMAGE            Position angle (CCW/x)                                     [deg]
#   7 A_IMAGE                Profile RMS along major axis                               [pixel]
#   8 B_IMAGE                Profile RMS along minor axis                               [pixel]
#   9 MAGERR_BEST            RMS error for MAG_BEST                                     [mag]
#  10 NUMBER                 Running object number                                     
#  11 FLUXERR_BEST           RMS error for BEST flux                                    [count]
 4.47     94.4127  18.6393     5811.617   1125.4513 -67.03     8.432     4.008   0.0725          1     387.8695
 3.50     47.1609  20.8645     748.5314     46.6974 -18.43     3.115     2.992   0.2318          2     159.7962
 3.50     33.0301  20.2488      1319.74    450.1791   3.93     1.743     1.661   0.0727          3      88.3307
 3.50      7.9031  18.0998     9551.363    753.4478   2.44     1.983     1.923   0.0116          4     102.4581
 6.18     12.8639  22.6600     143.2238    858.4266  50.98     1.289     0.732   0.6728          5     88.73129
 3.50      7.2113  25.6106     9.456909   1284.7981 -46.48     0.737     0.563   3.9877          6      34.7248
 0.00      6.0000  99.0000    -33.67798   1058.0139   0.00     0.847     0.289  99.0000          7     48.38072
 7.55      4.2469  22.3673     187.5312    947.4111  45.53     1.314     0.771   0.5853          8      101.064
 4.12      3.8348  22.4797     169.0916     72.4608 -16.44     1.246     1.182   0.4558          9     70.96505
 6.10      2.8667  23.0443     100.5231    936.5207 -10.63     1.625     1.134   1.1254         10     104.1744
 5.45      4.6532  24.8262     19.47656    706.7065 -47.69     0.565     0.339   1.9924         11     35.73153
 4.68      1.4142  24.7602     20.69775   1254.7991  -3.78     1.168     0.488   2.3797         12     45.35387
 0.00     20.2485  99.0000    -18.64709    234.9529  16.47     1.096     0.906  99.0000         13     51.91671
 6.38     27.8961  21.8247     309.1127    906.5863  84.86     1.356     1.278   0.4399         14     125.2021
 0.00     24.3722  99.0000    -18.06506    897.5001  53.33     1.032     0.802  99.0000         15     106.8632
 7.50     21.4723  26.5537     3.967651    123.0066 -32.35     0.789     0.316  15.6347         16      57.1208
 4.06     69.3732  20.0970     1517.746   1463.3916  74.90     3.177     2.756   0.1281         17     179.0542
 7.74     26.3235  24.3373     30.55493    417.3286 -44.76     0.571     0.337   1.7960         18     50.53201
 3.72     32.4382  22.7234     135.1002   1515.2990  30.41     1.107     0.846   0.4282         19     53.26542
 3.50     33.1804  24.4140     28.47095      7.1900  44.59     0.766     0.561   1.3629         20     35.73153
 3.50     47.1839  23.7974     50.23743   1049.4036  70.29     0.741     0.448   0.6307         21     29.17467
 8.32     47.9779  23.9532     43.52332    229.0076   1.06     0.613     0.605   1.9030         22     76.26447
 4.81     62.2807  22.0780     244.7942   1014.5557  61.95     1.392     1.123   0.4024         23     90.70773
 6.14     52.4638  25.3314     12.23035    204.7005   8.76     0.973     0.482   5.6953         24     64.14005
 6.35     63.3292  22.2417     210.5369    894.4313  32.57     1.490     1.316   0.6841         25     132.6298
 3.50     95.1854  18.4667     6812.572    917.0939  -9.20     2.432     1.965   0.0183         26     114.8608
 6.68     63.8519  22.6423     145.5702    889.1374  18.53     1.225     0.942   0.5112         27     68.51648
 3.99     65.5806  23.1622     90.17822    971.4410  42.08     1.049     0.908   0.6953         28     57.73833
 3.50     77.6456  23.0370     101.2091    183.8656  35.74     1.922     1.615   0.9982         29     93.02405
 4.01     80.3084  21.9423     277.3771    542.7675 -74.51     1.942     1.344   0.3774         30     96.39422
 3.50     94.6567  21.0657      621.925    347.2999   1.29     1.577     1.515   0.1395         31     79.89812
 6.42     88.6536  22.6293     147.3286   1026.2157  38.54     0.937     0.744   0.5890         32     79.89812
 3.75     93.2241  22.9378     110.8883    737.8329  -2.89     1.220     1.140   0.6442         33     65.77794
 8.20     87.6823  22.4476     174.1687   1076.8492 -12.12     1.079     0.416   0.5145         34     82.51842
 4.37    106.6409  21.3435     481.5066    974.6325 -73.93     2.125     1.886   0.2930         35     129.9283
 3.50    106.5787  21.1190     592.0977     47.9887 -15.76     1.548     1.459   0.1441         36     78.55521
 8.45    104.3943  21.5261     406.9659    265.9957  54.86     1.476     0.923   0.3919         37     146.8426
 9.66     94.4939  23.0192     102.8741   1248.5023  44.92     0.506     0.494   0.7751         38     73.42131
 3.50    100.2884  22.7421     132.7919    357.1915   0.39     1.135     0.906   0.4301         39     52.59538
 3.50     96.5149  23.6635     56.83301    590.4865 -44.94     0.510     0.489   0.5575         40     29.17467
 0.00     99.9511  99.0000    -56.38306    173.4704  86.25     0.780     0.498  99.0000         41     55.22676
 5.94    110.1582  22.7423     132.7667   1458.8864 -14.43     1.146     0.934   0.7547         42     92.25841
 4.28    115.3070  22.9276     111.9364    925.0088 -50.53     1.258     1.145   0.7444         43     76.72809
 3.70    125.7528  21.2663     516.9832    300.9926 -16.30     1.591     1.521   0.1796         44     85.47398
 4.21    118.2691  22.8492     120.3134     79.9862  35.99     1.594     1.331   0.8328         45     92.25841
 7.06    113.9025  23.8346     48.54688     66.6563 -18.40     0.921     0.676   1.8363         46     82.08752
 8.59    112.3366  23.3578     75.31348   1000.3244 -45.54     0.575     0.335   0.8056         47     55.86524
 3.50    151.1229  19.0599     3944.781     45.8490 -52.15     1.949     1.851   0.0369         48     133.8863
 3.50    212.4886  15.9071     71973.73    967.6542  40.01     3.048     2.888   0.0023         49     154.6074
 9.18    119.3316  23.3936     72.87195    231.3272 -45.20     0.574     0.335   0.8696         50     58.34934
 4.90    130.0126  22.7490     131.9431     55.4443  37.97     1.241     1.021   0.6862         51     83.37357
 0.00    133.5662  99.0000     -104.704   1498.7036  -0.10     1.148     0.959  99.0000         52     86.29984
 5.33    140.3865  22.7214     135.3495    218.2452 -66.34     1.301     1.032   0.7403         53     92.25841
 4.32    158.7005  17.5688     15576.15     50.5213  14.00     2.556     2.201   0.0155         54     222.5937
 7.56    131.6804  23.0266     102.1803   1315.2950  46.43     0.554     0.344   0.5296         55     49.82523
 4.48    152.9119  27.2416     2.105591    879.5300 -60.81     1.011     0.961  33.6470         56     65.23655
 3.72    173.7126  20.9387     699.0587    557.3240  47.42     2.364     2.321   0.2023         57      130.201
 4.23    183.8768  20.9262     707.1874   1263.0786  -7.93     2.523     2.381   0.2374         58     154.6074
 5.13    166.4995  22.2679     205.5173    746.5167 -74.63     1.407     1.236   0.5266         59     99.65047
 4.28    164.1927  23.4913     66.60315   1521.5858  74.81     1.105     0.950   1.0813         60     66.31491
 5.24    162.8947  23.9434     43.91687   1154.2748  52.79     0.950     0.930   1.8275         61     73.90276
 4.89    172.7050  27.7863     1.274902    945.0700 -51.52     1.571     1.253  86.3878         62     101.4143
 3.50    185.3256  20.1066     1504.407    378.2397 -28.54     1.786     1.762   0.0663         63     91.87319
 7.50    164.1903  22.8873     116.1698    759.0225  37.12     0.938     0.473   0.6818         64     72.93668
 7.24    168.6113  23.1976     87.29224   1158.9104  47.54     1.111     0.480   0.9717         65     78.10243
 3.94    174.5828  23.2688     81.74634    961.8307  82.06     0.977     0.930   0.7422         66     55.86524
 3.50    237.3644  16.4930     41955.52   1389.7841 -41.09     2.309     2.169   0.0030         67     117.3049
 6.87    181.0341  24.1736     35.52856    461.1556 -54.27     0.926     0.470   2.0595         68     67.37601
 6.16    196.4339  23.4095     71.81226   1066.2972 -20.88     2.031     1.821   2.6655         69     176.2594
 0.00    188.9588  20.6619     902.0411   1070.1791 -24.62     1.548     1.057   0.0980         70     81.37115
 3.50    206.1323  20.6434     917.6127     21.5627 -56.80     1.638     1.562   0.0992         71     83.79786
 3.50    201.2601  23.2558     82.72961    185.9180   6.51     1.443     1.361   0.9638         72     73.42131
 5.23    202.1462  23.3798     73.80701    412.4117  66.29     1.510     1.319   1.6157         73     109.8095
 4.88    201.9580  23.0152     103.2524   1294.5009 -85.51     1.212     0.838   0.7620         74      72.4488
 5.93    205.3313  23.2670     81.88367    353.9930  16.74     1.813     1.438   1.8989         75      143.174
 3.50    224.9422  19.3308     3073.896   1093.4563 -59.44     1.814     1.775   0.0335         76     94.91114
 3.99    218.7306  21.3606     474.0002   1020.6931  -7.62     2.094     1.983   0.2776         77     121.1715
 4.87    216.3218  21.3939     459.6812   1198.5570  55.51     1.841     1.567   0.2917         78     123.4908
 6.51    203.9402  23.7552     52.22803    452.2255  87.50     0.695     0.417   1.0795         79     51.91671
 4.60    268.1983  21.2036     547.7283    140.7266  65.34     5.964     2.061   0.4764         80     240.2855
 3.82    210.1299  23.1988     87.19434    908.8029  49.34     0.821     0.649   0.5031         81      40.3905
 3.50    223.1118  22.1439     230.3733   1178.3679  -5.05     1.281     1.210   0.3075         82     65.23655
 6.18    213.5688  23.4914     66.59656   1061.7803  21.01     0.736     0.449   0.8794         83     53.92712
 3.89    286.2726  19.5472     2518.377   1328.5978 -54.54     4.071     3.479   0.0941         84     218.3232
 7.11    232.5957  24.1281     37.04907    654.3945  19.87     2.685     1.375   5.9608         85     203.3525
 3.53    242.9650  20.5237     1024.538    566.6058  37.93     1.679     1.645   0.0919         86     86.70982
 3.55    236.5731  21.8757      294.917    836.9667   6.66     1.498     1.372   0.2825         87     76.72809
 3.50    258.8932  19.7904     2012.962   1426.9111 -51.38     2.259     1.731   0.0560         88     103.8334
 4.05    234.9387  22.8266     122.8412    880.2339 -62.63     1.346     1.177   0.6742         89     76.26447
 5.69    244.0083  26.1572     5.716309    660.8113  37.74     2.162     1.852  32.2795         90     169.9075
 3.50    247.6646  20.8243     776.7517    577.4250  67.60     1.633     1.559   0.1154         91     82.51842
 6.01    254.1846  21.0552     627.9637   1369.7998 -47.94     2.427     1.671   0.3131         92     181.0241
 6.17    241.2870  22.2040     217.9781    369.2222  30.13     1.736     1.378   0.7121         93     142.9261
 7.66    228.4811  24.7464     20.96167    906.4860  44.84     0.514     0.484   3.0230         94     58.34934
 7.03    242.2005  23.0398     100.9424    966.9060 -61.08     1.771     0.956   1.4806         95     137.6166
 4.36    249.6382  23.1162     94.08362   1163.8445 -84.59     1.850     0.892   0.9673         96     83.79786
 6.57    255.1234  21.9132      284.917     76.2674 -83.10     2.133     1.143   0.5832         97     152.9933
 6.82    243.4088  22.4155     179.3875   1339.8333  80.45     1.073     0.852   0.5880         98     97.12727
 0.00    251.5225  99.0000    -5.563843    914.5157  22.95     1.473     1.146  99.0000         99     67.37601
 6.16    261.7776  23.8190     49.25085    410.9438 -50.42     1.595     1.170   2.7670        100      125.485
 4.50    296.8800  20.6900     878.9866    375.0334  30.08     5.932     2.233   0.3014        101     243.9475
 3.81    279.1085  21.3307     487.1973   1128.7777 -37.13     2.416     1.730   0.2601        102     116.6987
 4.37    264.9361  22.8085     124.9086    271.6232 -73.63     1.138     0.946   0.5812        103     66.84756
 6.46    263.5041  25.6861     8.822144    721.2064 -89.49     0.987     0.733  10.0516        104     81.65434
 3.50    281.3364  21.2600     519.9844    955.4014 -28.15     1.574     1.506   0.1659        105       79.453
 0.00    266.9327  99.0000    -18.64294    767.3180 -16.25     0.981     0.732  99.0000        106       43.762
 3.50    286.3484  21.7515     330.6669    743.6095  40.15     1.460     1.383   0.2458        107     74.85639
 0.00    278.8119  99.0000    -5.668457   1454.3896 -71.06     0.759     0.445  99.0000        108     64.69062
 6.29    279.6088  27.6460     1.450806    884.7463  18.33     0.745     0.451  40.3671        109     53.92712
 3.73    313.6259  20.8830     735.8607    792.7342  28.19     2.366     2.017   0.1793        110     121.4638
 0.00    289.1764  99.0000    -54.10059   1177.8871  42.69     0.851     0.670  99.0000        111     82.51842
 7.07    292.0175  26.2682     5.161011   1277.2856  87.01     0.742     0.692  16.0479        112     76.26447
 5.13    298.8221  26.6405      3.66272    863.1149  17.37     1.474     1.048  28.4717        113      96.0256
 3.50    374.0452  16.4497     43664.58   1263.0072 -33.49     2.333     2.210   0.0029        114      117.908
 0.00    315.0114  20.6464     915.0235    803.5080  31.74     1.723     1.262   0.1128        115     95.01321
 3.50    338.2123  19.2393     3343.994    596.3755 -66.87     1.875     1.854   0.0317        116     97.49172
 3.50    332.7775  20.2783     1284.313    789.3983 -34.10     1.680     1.646   0.0730        117     86.29984
 6.26    311.5056  23.9322     44.37219   1549.0146  -1.35     0.805     0.500   1.4281        118     58.34934
 0.00    317.2074  99.0000    -89.94556   1061.6068 -71.74     0.763     0.449  99.0000        119     71.46306
 0.00    323.1175  99.0000    -96.30786    833.2548  -4.62     1.149     1.073  99.0000        120      82.9471
 5.46    323.2687  22.3645     188.0248    289.3503  -5.53     1.242     1.080   0.5525        121     95.65556
 3.50    328.8228  22.2131     216.1566    720.6425 -72.46     1.375     1.253   0.3385        122     67.37601
 3.50    335.3305  23.0090     103.8517   1146.0575 -32.82     2.232     1.734   1.0822        123     103.4913
 6.41    327.7767  22.8558     119.5807    157.4338  64.09     1.391     0.861   0.9492        124     104.5143
 0.00    322.0162  99.0000    -63.20642   1454.0000  90.00     0.864     0.289  99.0000        125     58.95401
 0.00    335.9540  99.0000    -152.3483   1038.2914 -51.54     1.658     1.399  99.0000        126     129.6551
 5.32    334.7170  21.8357     305.9933    661.8060   3.32     1.727     1.269   0.4185        127      117.908
 3.50    361.4441  20.9948     663.8601    708.8192 -68.97     2.479     2.197   0.1987        128     121.4638
 3.50    329.3398  24.6527     22.85168    220.3325 -45.30     0.580     0.332   0.9804        129     20.62961
 4.02    375.0766  20.4073     1140.433   1364.3392   5.19     3.340     2.486   0.1646        130      172.805
 6.59    349.8664  24.1490     36.33997   1576.3282 -74.94     1.358     0.321   1.9496        131     65.23655
 3.50    347.4366  24.0014     41.63477   1599.3663  84.48     0.950     0.617   0.9058        132      34.7248
 5.25    348.1754  23.9958     41.85034     40.1509  47.67     0.757     0.568   1.3472        133     51.91671
 3.50    363.7216  22.0069     261.3719    504.4440  69.04     1.459     1.405   0.3149        134     75.79802
 4.73    360.6756  22.6989      138.175    640.8969 -84.53     1.210     1.133   0.6619        135     84.22002
 7.26    359.7431  23.2420      83.7926   1278.9045 -66.17     1.174     1.052   1.5628        136     120.5847
 5.16    357.1693  23.5210     64.80652   1291.4176  69.78     0.750     0.447   0.7333        137       43.762
 6.49    357.3419  24.0826     38.63403   1050.6553 -12.61     1.135     0.614   2.2707        138     80.78101
 7.49    363.0229  24.2019      34.6123     99.2650  89.07     1.168     0.847   3.4656        139     110.4535
 7.33    359.0027  23.2704     81.62854   1095.3845 -89.96     0.875     0.486   0.9441        140     70.96505
 7.56    369.7059  22.4347      176.249   1341.3179  34.94     2.012     1.027   0.9996        141     162.2192
 8.28    365.7765  22.4023     181.5854   1284.6234 -65.85     1.036     0.935   0.7282        142     121.7555
 4.23    451.0447  20.6199     937.6815   1220.1050  54.56     7.010     2.619   0.3129        143     270.1612
 6.71    368.1672  25.4242     11.22815    268.3489 -52.80     1.060     0.678   8.1865        144     84.64007
 3.92    401.3127  20.3460     1206.724    825.4194  45.88     3.281     2.709   0.1574        145     174.8453
 3.55    389.2865  20.6163     940.7723   1463.5734  -5.81     1.789     1.699   0.1061        146     91.87319
 6.34    380.2635  21.5599     394.5055    959.4734 -67.00     2.181     1.119   0.4049        147     147.0839
 7.87    368.8943  23.3405     76.52319    643.5867  27.32     1.151     0.577   1.3363        148     94.16084
 3.72    377.3903  22.4102     180.2621    163.5931  83.29     1.331     1.253   0.4365        149      72.4488
 3.89    385.7827  22.2292      212.969    867.8937  84.36     1.357     1.232   0.3769        150     73.90276
 6.27    377.7131  24.4551     27.41382    430.5041 -24.91     1.601     0.716   3.9617        151     100.0057
 0.00    383.5173  99.0000    -92.09082   1278.0845  88.46     1.306     1.166  99.0000        152     117.3049
 3.55    392.8902  21.7748     323.6606   1317.9773  52.61     1.645     1.444   0.2769        153     82.51842
 3.50    413.7154  19.5371     2541.888     67.4630 -60.35     1.877     1.839   0.0412        154     96.39422
 3.50    417.2204  19.1909     3496.575   1308.3070  17.11     1.920     1.876   0.0307        155     98.93612
 5.35    391.8077  26.9160     2.841797   1206.6018 -76.03     1.191     0.958  32.8223        156      85.8879
 3.50    719.8947  17.7213     13535.69    199.2038 -41.88    13.551    10.306   0.0495        157     617.3965
 5.07    393.7631  23.1143     94.24915     18.9677  -1.50     0.688     0.425   0.4654        158      40.3905
 3.50    458.0837  17.7785     12841.27     12.6700 -49.85     2.253     2.053   0.0095        159     112.6787
 3.92    413.4766  23.3857     73.40356    665.7608  68.88     1.487     0.880   0.9890        160     66.84756
 0.00    416.9565  99.0000    -66.85034   1158.3895  81.84     1.470     1.033  99.0000        161     64.69062
 5.02    410.1406  23.6766     56.14893    750.1879   9.17     1.114     0.725   1.3031        162     67.37601
 0.00    421.2555  99.0000    -137.9103    102.5200  61.15     1.205     1.020  99.0000        163     93.40452
 0.00    419.6847  23.0610     98.99202    889.6652 -66.61     0.907     0.718   0.5473        164     49.88751
 6.45    421.7512  22.3613     188.5674    893.2390 -21.82     1.314     0.898   0.5941        165      103.148
 6.55    425.8313  23.2232     85.25757    962.7754 -80.47     1.045     0.847   1.1554        166     90.70773
 4.90    439.7298  22.6824     140.2964    908.9675 -25.61     1.890     1.699   1.0204        167     131.8252
 3.50    466.1190  18.4513     6910.202   1075.1609 -32.82     2.018     1.954   0.0161        168     102.4581
 0.00    428.7175  99.0000    -69.46472   1431.8264 -31.22     0.864     0.605  99.0000        169     60.73192
