#   1 KRON_RADIUS            Kron apertures in units of A or B                         
#   2 Y_IMAGE                Object position along y                                    [pixel]
#   3 MAG_BEST               Best of MAG_AUTO and MAG_ISOCOR                            [mag]
#   4 FLUX_BEST              Best of FLUX_AUTO and FLUX_ISOCOR                          [count]
#   5 X_IMAGE                Object position along x                                    [pixel]
#   6 THETA_IMAGE            Position angle (CCW/x)                                     [deg]
#   7 A_IMAGE                Profile RMS along major axis                               [pixel]
#   8 B_IMAGE                Profile RMS along minor axis                               [pixel]
#   9 MAGERR_BEST            RMS error for MAG_BEST                                     [mag]
#  10 NUMBER                 Running object number                                     
#  11 FLUXERR_BEST           RMS error for BEST flux                                    [count]
 3.87     54.0606  16.5604     39432.57     63.4906  10.24     5.079     4.642   0.0094          1     340.4495
 3.50     17.6089  18.7896     5059.996    984.8857 -88.11     4.179     1.842   0.0379          2     176.6392
 3.50     18.7909  19.2412     3338.281     91.0583 -77.68     1.665     1.590   0.0338          3     103.8479
 3.50     15.4372  18.1803     8869.425   1445.5699 -58.56     1.765     1.663   0.0134          4     109.7306
 8.71      7.7679  22.7794     128.3027   1469.4524 -68.75     0.745     0.449   0.7649          5     90.37041
 5.20      4.5160  21.9157     284.2662    145.3089  44.41     1.257     0.896   0.3646          6     95.44178
 7.14     10.4944  22.6951     138.6648   1183.4982  44.88     0.503     0.497   0.5316          7     67.87428
 3.50     60.5870  16.4966     41816.36   1078.2454  78.89     2.101     1.994   0.0034          8     129.4312
 7.81     14.3362  23.3916     73.00488    839.6812  45.80     0.572     0.336   0.9383          9     63.07695
 3.71     25.5086  20.9646     682.6213    367.0246 -44.58     1.386     1.224   0.1381         10     86.82507
 3.96     17.9751  22.1609      226.806    384.0876  -6.21     1.065     0.750   0.2940         11      61.3946
 3.50    182.7325  12.9413      1105248   1107.3342 -33.02     5.842     5.048   0.0003         12     345.0318
 7.95     24.5880  22.4983     166.2255    383.1618  87.82     1.000     0.715   0.7938         13     121.5034
 7.77     35.5278  21.2783     511.3225   1110.5074  83.69     1.018     0.640   0.2420         14     113.9436
 6.92     34.3293  21.8120      312.759    326.4466 -55.26     1.064     0.824   0.4098         15     118.0062
 5.72     38.8936  22.9253     112.1707   1521.2977  57.82     1.154     0.680   0.8861         16     91.52167
 5.84     39.8461  22.0799     244.3662   1170.4801  -0.97     0.941     0.732   0.3885         17     87.42595
 5.61     45.8528  22.5883     152.9926    440.1219 -39.18     1.403     1.002   0.8533         18     120.2039
 3.50     43.2799  22.2557     207.8308    915.3459 -44.82     1.174     0.700   0.2929         19     56.04535
 3.50     80.9598  16.5434     40052.93    537.4124 -67.89     2.020     1.918   0.0034         20     125.3212
 6.79     40.5038  23.7430     52.81995   1225.9862 -32.64     0.782     0.319   1.1901         21     57.88338
 6.55     51.1657  23.5158      65.1167    265.9854  36.65     0.939     0.465   1.3329         22     79.91786
 6.43     51.0299  22.6684     142.1147   1435.2108 -33.32     0.788     0.497   0.5417         23     70.89238
 6.80     49.3377  24.2977     31.68896   1233.6754  45.58     0.575     0.334   1.8221         24     53.16928
 3.50     75.9613  20.3260     1229.142    127.6706  65.46     1.365     1.260   0.0723         25     81.85947
 5.75     82.8388  21.1851     557.1382    421.4473 -51.35     1.212     0.808   0.2014         26     103.3425
 5.12     91.5345  20.6023     952.9686    376.7948 -74.03     1.886     1.573   0.1818         27     159.5078
 3.50    122.5929  16.1013     60181.89    788.9210 -57.93     2.107     1.961   0.0023         28     128.6197
 3.64     97.3432  19.8802      1853.26     55.9943  -9.78     1.501     1.385   0.0559         29     95.44178
 6.18     92.9185  21.5463     399.4807    495.8493  75.14     1.341     0.684   0.2891         30     106.3386
 6.08     98.7693  20.5326     1016.148    452.5781 -24.86     1.703     0.981   0.1523         31     142.5213
 4.43     96.5883  24.0220     40.85229   1075.8324  21.36     0.766     0.435   1.2465         32      46.8909
 8.01    114.3489  22.9826     106.4021    270.3333 -45.61     0.584     0.329   0.6687         33     65.51954
 7.06    117.8673  22.2173     215.3162     66.8318  46.85     0.748     0.562   0.4193         34     83.12868
 6.06    118.7044  24.5799     24.43689    990.6282 -41.71     0.576     0.332   2.1329         35     47.99437
 8.28    118.5058  23.0273     102.1141    154.4909  45.33     0.502     0.498   0.7847         36     73.78712
 4.24    235.9001  16.4041     45536.35    403.1562 -56.45     6.429     5.300   0.0107         37     448.7129
 3.50    194.4204  14.5093     260794.8    317.8754 -62.51     2.391     2.159   0.0006         38      143.619
 3.50    163.1395  16.7407     33397.58   1468.1359 -60.49     1.999     1.918   0.0040         39     123.2148
 5.04    132.4922  21.9024     287.7611    418.0420   0.54     0.804     0.500   0.2184         40     57.88338
 3.50    171.1363  18.3663     7472.428    877.1224 -68.32     1.766     1.710   0.0159         41     109.7306
 5.36    147.2958  22.7176     135.8153    353.1507 -30.05     0.879     0.605   0.5669         42     70.89238
 6.86    152.5081  22.8802     116.9241   1279.9960  -1.46     0.803     0.500   0.7112         43     76.57252
 4.82    172.3745  20.0983     1515.934    325.0115 -64.12     1.467     1.346   0.0883         44     123.2148
 3.59    165.8674  21.1567      571.892   1445.5350  -0.27     1.320     1.134   0.1518         45     79.91786
 4.17    167.5935  21.5295     405.7086    104.3067 -28.86     1.173     1.010   0.2157         46     80.57026
 5.09    170.4302  21.4712     428.0671   1368.2188 -47.27     1.080     0.717   0.2060         47     81.21742
 5.71    169.4399  22.8286     122.6249    651.5150 -35.83     0.503     0.493   0.4621         48     52.17538
 4.46    181.2359  21.3536     477.0327    574.8821  23.27     1.275     0.773   0.1834         49     80.57026
 4.36    193.3881  20.7451     835.5608   1350.3933 -35.33     1.357     1.132   0.1269         50     97.61119
 8.45    186.9876  21.2413     529.0277   1354.0366 -74.11     0.796     0.783   0.2476         51     120.6386
 3.72    211.5532  18.9627     4314.558    827.4822  -7.29     3.936     1.949   0.0467         52     185.5995
 3.50    207.5034  20.1466     1449.928    548.9205 -81.30     1.549     1.369   0.0677         53     90.37041
 7.58    196.0324  22.1907     220.6586    267.5382  56.83     0.765     0.324   0.3489         54     70.89238
 4.87    229.8139  19.9027     1815.151    414.8996 -19.48     1.967     1.652   0.0528         55     88.18932
 3.50    211.4506  21.3888     461.8112    684.4574 -82.33     1.680     1.042   0.2028         56     86.22002
 4.07    209.4233  20.5976     957.1405    349.7025  43.13     1.598     1.217   0.1195         57     105.3493
 3.50    204.3587  21.5897     383.8027    250.6058 -42.34     0.981     0.848   0.1663         58     58.78085
 3.50    212.9739  20.1448     1452.439   1305.9009  53.84     1.403     1.346   0.0636         59     84.99697
 4.51    231.0750  19.0526     3971.691    562.2184  -9.41     3.381     2.852   0.0693         60     253.5497
 0.00    204.4280  99.0000    -71.62964   1498.4841 -36.27     0.505     0.489  99.0000         61     35.44619
 7.06    205.7527  23.8447     48.09717    937.2287 -19.28     0.855     0.346   1.5670         62     69.39974
 3.57    224.5217  20.0141     1638.117   1225.8657 -53.97     1.548     1.416   0.0636         63     95.98873
 3.50    260.5782  15.4127     113479.1    997.2145 -60.88     2.174     2.033   0.0013         64     132.6275
 3.50    266.7132  15.8407     76509.62     67.3777 -78.85     2.116     1.998   0.0018         65     129.4312
 5.20    223.1785  20.3460     1206.649    345.6050 -22.38     1.579     1.463   0.1279         66     142.1535
 3.50    223.2261  21.4089     453.3503    774.7524 -19.32     1.202     1.068   0.1733         67     72.35423
 7.24    219.2476  22.2417      210.532    740.7268 -18.84     0.845     0.353   0.3695         68     71.62703
 4.32    244.2684  20.2558     1311.177    112.8208  77.16     2.123     1.544   0.1168         69     141.0444
 4.49    256.2215  19.1733     3553.565    612.7909 -37.89     2.503     1.802   0.0530         70     173.3484
 6.09    239.9036  21.1733     563.2048    838.4949 -37.93     1.369     1.007   0.2511         71     130.2376
 5.00    240.0472  24.2541     32.98938   1478.8186 -53.93     0.940     0.464   1.9641         72     59.66483
 3.50    313.2080  14.2893     319350.7    439.2092 -58.52     2.401     2.209   0.0005         73     146.1484
 6.70    252.6677  21.5167     410.4945   1372.6152 -44.30     1.226     0.877   0.3327         74     125.7382
 6.94    251.4614  21.4417      439.861    107.4959 -45.23     1.084     0.836   0.2968         75     120.2039
 5.43    254.3471  22.9901     105.6729   1352.5072   0.00     0.868     0.476   0.6651         76     64.71559
 3.50    288.3375  17.4560     17282.77   1486.2755 -55.67     1.869     1.782   0.0073         77     116.2181
 3.50    282.7324  19.2163     3415.667   1522.1934 -43.42     1.561     1.489   0.0310         78     97.61119
 6.94    271.2609  22.6560     143.7467   1273.5472 -11.08     1.161     0.926   0.9900         79     131.0391
 3.57    290.6129  20.0449     1592.341    514.7311 -61.03     1.859     1.552   0.0755         80     110.6807
 3.50    319.4862  16.2449     52729.28    905.2509 -61.70     2.069     1.942   0.0026         81     126.9812
 3.50    303.9936  17.7724      12913.7    201.5941 -73.78     1.829     1.708   0.0095         82     113.4832
 5.16    297.8686  20.3785     1171.167   1413.5083 -39.26     2.150     1.549   0.1582         83     170.6087
 3.56    294.7549  20.2712     1292.749   1327.3584 -23.02     1.400     1.322   0.0744         84     88.61547
 3.50    352.2489  14.4694     270553.4   1345.7200 -52.96     2.313     2.158   0.0006         85     141.0444
 3.50    352.2323  14.4271     281290.9    890.5778 -52.57     2.350     2.174   0.0006         86      143.619
 6.19    294.2966  21.1062     599.1444   1475.4912 -66.12     1.171     0.977   0.2163         87     119.3297
 3.50    302.8696  21.0338     640.4144    563.5292  64.37     1.321     1.261   0.1355         88     79.91786
 3.50    322.8518  18.2467     8342.608    697.1324 -67.39     1.711     1.657   0.0138         89     105.8451
 6.40    309.7060  21.2605     519.7587     85.4069 -81.45     1.983     0.885   0.3235         90     154.8448
 5.00    322.1810  20.8497     758.7629    641.0074 -76.22     2.195     1.269   0.2157         91     150.7332
 4.49    328.1170  20.0159     1635.525    595.2689 -50.18     1.627     1.559   0.0873         92      131.438
 5.36    317.8036  22.4861     168.0913    226.3809 -71.76     0.752     0.447   0.3560         93     55.10334
 3.66    347.0935  18.6250     5888.523    866.9109 -38.15     1.821     1.669   0.0215         94     116.6677
 5.35    332.8581  21.9007     288.2151     93.4377  -7.83     1.068     0.836   0.3513         95      93.2219
 4.20    330.3324  22.4075     180.7219   1545.6162  -6.15     0.994     0.631   0.3638         96     60.53589
 4.50    335.7877  22.1002     239.8408   1440.3218 -48.97     0.986     0.855   0.3373         97     74.49324
 3.79    356.5633  18.8616     4735.622    431.6613 -76.63     1.957     1.739   0.0289         98     126.1539
 3.50    350.8575  20.7697     816.8319     54.4747 -39.25     1.290     1.224   0.1045         99     78.59681
 5.14    348.6108  22.6257     147.8124     42.2829 -59.05     0.983     0.545   0.5099        100     69.39974
 3.50    368.9762  18.2020     8693.354    760.8817 -55.02     1.739     1.636   0.0132        101     105.3493
 7.08    351.1112  22.9843     106.2345    920.2661 -17.72     0.939     0.676   1.0408        102     101.8114
 3.50    362.0320  20.1782     1408.355   1500.1698  10.15     1.428     1.398   0.0683        103     88.61547
 3.61    368.2886  19.3423     3041.526    442.6443 -44.79     1.606     1.455   0.0358        104      100.257
 6.16    353.6877  22.9578     108.8652    350.3493  43.36     0.575     0.334   0.5001        105     50.12848
 3.50    396.0084  16.4469      43777.3    231.2756 -59.51     2.003     1.932   0.0031        106     123.2148
 6.26    360.5867  21.8535     301.0302    533.2850  21.62     1.031     0.915   0.4010        107     111.1527
 3.53    361.4968  22.7583     130.8169   1033.7421 -34.22     1.094     0.910   0.5167        108     62.24146
 5.96    363.8832  22.5176     163.2922   1415.6968 -78.20     1.038     0.416   0.4715        109     70.89238
 3.50    373.7502  21.6395     366.5911    992.1270 -58.62     1.191     1.021   0.2033        110     68.64125
 4.95    373.9765  21.6585     360.2404   1083.8434 -45.30     1.443     1.000   0.3235        111     107.3187
 6.12    369.9420  22.4847     168.3116    210.5096  87.58     0.786     0.499   0.4478        112     69.39974
 6.59    371.1455  22.1340     232.4974     71.4292 -16.36     1.204     0.716   0.5214        113     111.6227
 6.58    376.9810  20.8994     724.8282    753.9877  38.43     1.723     0.867   0.2195        114     146.5061
 3.50    397.8752  18.6458     5776.746   1461.0035 -57.54     1.678     1.607   0.0194        115     103.3425
 5.17    376.6144  23.1361     92.37561     86.3840  23.01     1.364     0.457   0.8675        116     73.78712
 3.50    398.9585  18.4879     6681.131    354.4046 -56.82     1.759     1.641   0.0177        117     108.7723
 5.97    380.9103  21.5951     381.9015    125.6369 -22.70     0.902     0.682   0.2434        118     85.61068
 3.64    394.5150  20.2966     1262.818   1088.6681 -16.65     1.553     1.372   0.0825        119     95.98873
 3.50    420.3994  16.5454     39978.42    433.1460 -57.35     1.997     1.878   0.0033        120     122.7892
 3.50    416.4439  17.3473      19101.5    837.1794 -67.30     1.895     1.794   0.0067        121     117.5617
 5.36    390.0044  23.2612     82.32617   1195.2917  85.80     0.739     0.674   0.8851        122     67.09855
 6.62    390.2305  22.7592     130.7172    260.4030  71.18     0.744     0.452   0.5703        123     68.64125
 4.81    397.2771  22.1006     239.7496    977.5050 -21.24     1.103     0.780   0.3679        124     81.21742
 5.97    397.9344  20.9702     679.1035    626.5070  15.77     1.528     0.795   0.1943        125     121.5034
 3.50    440.8153  21.5779     387.9995    305.5588 -50.74     1.189     1.082   0.2025        126     72.35423
 6.01    407.6977  21.9580     273.4097    281.6329 -82.40     1.007     0.467   0.3042        127     76.57252
 7.28    415.6719  20.8161     782.6155      2.5615  28.95     1.141     0.754   0.1384        128     99.73342
 7.80    404.5128  21.4912     420.2605    526.8889  -1.99     0.784     0.499   0.2290        129     88.61547
 3.50    425.0124  19.3353     3061.209    926.1458 -46.76     1.635     1.521   0.0356        130      100.257
 3.50    461.8470  15.2969     126247.9    807.3679 -54.81     2.148     2.048   0.0011        131     133.0216
 7.26    413.7131  22.3581     189.1244   1562.2982 -60.78     1.155     0.451   0.5449        132     94.89169
 3.50    438.7642  17.6750     14124.99    251.9271 -54.88     1.813     1.728   0.0087        133     112.5568
 4.91    421.8596  20.5265     1021.905    158.7295  50.88     1.660     1.444   0.1463        134     137.6633
 5.46    412.6987  23.3517     75.73816    199.3263  43.64     0.560     0.342   0.6395        135     44.60214
 9.12    415.3152  22.4704     170.5406    558.6304  42.89     0.584     0.328   0.4514        136     70.89238
 6.12    419.5396  23.0764     97.59546   1203.5216  13.28     1.222     0.608   1.0742        137     96.53259
 3.50    433.6358  20.5600     990.8475   1421.9036 -17.73     1.428     1.337   0.0965        138     88.02272
 6.05    427.7109  21.9610     272.6434   1179.3110  20.69     1.296     0.986   0.4942        139     124.0617
 5.64    420.6244  23.0312     101.7455   1579.7715  17.88     0.757     0.446   0.6368        140     59.66483
 7.11    424.8950  22.7942     126.5621   1063.8502 -46.61     0.815     0.670   0.8283        141     96.53259
 6.86    431.8513  20.7823     807.3556    717.7710 -64.55     0.930     0.895   0.1539        142     114.4021
 5.00    434.9498  21.2093     544.8333    151.0015  25.47     1.154     0.980   0.1902        143     95.44178
 4.46    468.5386  18.3826     7361.155    850.1890  22.22     7.442     1.903   0.0449        144     304.5761
 3.51    451.1122  18.9561     4340.797     21.1382 -39.37     1.703     1.572   0.0261        145     104.3508
 5.35    446.1109  20.8476     760.2784    122.1262 -32.70     1.653     1.204   0.1977        146     138.4218
 7.20    434.6680  24.0038     41.54126    353.3013  46.61     0.562     0.341   1.4405        147     55.10334
 3.57    448.0235  20.9449     695.0922    884.3464  -1.26     2.252     1.419   0.1809        148     115.7668
 3.50    458.6750  18.8607      4739.33     34.3958 -60.50     1.679     1.537   0.0234        149     102.3243
 5.33    444.1706  22.5751     154.8634    654.5854 -70.39     0.757     0.448   0.3995        150     56.97178
 3.53    464.5988  20.0235     1624.084    468.4730 -73.92     1.596     1.441   0.0645        151     96.53259
 4.28    453.8176  22.8145     124.2225   1533.1399  37.42     0.790     0.678   0.5060        152     57.88338
 5.10    461.9113  21.4097     453.0138   1096.1396  54.35     1.156     1.063   0.2465        153     102.8347
 3.50    472.0582  20.3112     1245.988    254.1115 -72.83     1.524     1.321   0.0783        154     89.78924
 5.22    462.3787  21.6616     359.2177    724.6503 -28.34     1.116     0.728   0.2532        155     83.75607
 7.22    457.7005  23.0465     100.3273   1223.6603 -42.96     0.565     0.339   0.6067        156     56.04535
 3.50    472.9619  19.8058     1984.713    734.7728 -38.58     1.496     1.347   0.0491        157     89.78924
 3.50    478.7596  19.5509     2509.806    922.8173 -35.41     1.544     1.447   0.0411        158     94.89169
 3.92    478.7934  20.7596     824.4447   1276.8331 -53.38     1.380     1.256   0.1228        159      93.2219
 4.44    476.5136  22.6435     145.4161   1168.0371 -89.76     0.813     0.676   0.4456        160     59.66483
 4.27    533.7934  17.3346     19327.46    518.6295  28.40     4.107     3.566   0.0166        161     295.6801
 3.50    484.9557  20.5738     978.3561   1070.4277 -66.11     1.365     1.226   0.0909        162     81.85947
 7.96    473.4778  22.2141     215.9486    781.5225  45.02     0.505     0.494   0.3711        163     73.78712
 4.94    496.9649  19.8455     1913.293     82.5904  56.28     2.338     2.068   0.1120        164      197.356
 5.19    489.7222  20.8751     741.2136    839.5610  85.43     1.974     0.945   0.1884        165     128.6197
 4.09    496.5237  19.7597     2070.798   1186.6776 -15.91     2.961     1.842   0.0909        166     173.3484
 4.58    481.6935  23.0688     98.28638   1309.1306  71.28     0.894     0.694   0.7414        167     67.09855
 3.62    479.8593  22.3951     182.7991    682.6145  17.68     1.030     0.720   0.3330        168     56.04535
 5.99    481.6788  22.6451     145.1929   1520.4889  -0.10     0.921     0.467   0.5303        169     70.89238
