#   1 KRON_RADIUS            Kron apertures in units of A or B                         
#   2 Y_IMAGE                Object position along y                                    [pixel]
#   3 MAG_BEST               Best of MAG_AUTO and MAG_ISOCOR                            [mag]
#   4 FLUX_BEST              Best of FLUX_AUTO and FLUX_ISOCOR                          [count]
#   5 X_IMAGE                Object position along x                                    [pixel]
#   6 THETA_IMAGE            Position angle (CCW/x)                                     [deg]
#   7 A_IMAGE                Profile RMS along major axis                               [pixel]
#   8 B_IMAGE                Profile RMS along minor axis                               [pixel]
#   9 MAGERR_BEST            RMS error for MAG_BEST                                     [mag]
#  10 NUMBER                 Running object number                                     
#  11 FLUXERR_BEST           RMS error for BEST flux                                    [count]
 3.87     54.0659  16.5046      41511.6     63.4899  10.31     5.081     4.648   0.0051          1     193.5732
 3.50     17.6085  18.7341     5325.309    984.8859 -88.11     4.180     1.842   0.0205          2     100.5567
 3.50     18.7843  19.2676     3258.128     91.0677 -71.47     1.673     1.595   0.0197          3     59.01929
 3.50     15.4372  18.1420     9187.448   1445.5699 -58.56     1.765     1.663   0.0074          4     62.36261
 8.71      7.7679  22.2990     199.7051   1469.4524 -68.75     0.745     0.449   0.2793          5     51.35972
 5.07      4.5796  21.8830     292.9651    145.2529  45.23     1.230     0.964   0.2034          6     54.86184
 7.04     10.4945  23.1398     92.06152   1183.4982  44.89     0.503     0.497   0.4000          7     33.90899
 3.50     60.5844  16.4476      43747.1   1078.2451  78.79     2.095     1.992   0.0018          8     73.32869
 7.80     14.3363  22.7837     127.7937    839.6812  45.80     0.572     0.336   0.3046          9     35.84818
 3.74     25.5083  20.8574     753.4318    367.0248 -44.59     1.386     1.224   0.0711         10     49.34483
 4.02     17.9750  21.9908     265.2703    384.0877  -6.22     1.065     0.750   0.1524         11     37.23637
 7.96     24.5876  21.4504     436.3442    383.1619  87.84     1.000     0.715   0.1719         12     69.05338
 7.77     35.5276  21.5382     402.4613   1110.5074  83.69     1.018     0.640   0.1747         13     64.75692
 6.92     34.3290  21.4673      429.625    326.4467 -55.25     1.064     0.824   0.1695         14     67.06581
 5.72     38.8936  21.8215     310.0234   1521.2977  57.82     1.154     0.680   0.1822         15     52.01401
 3.50     40.2370  24.2447     33.27563   1226.1660 -45.15     0.973     0.347   0.6575         16     20.14494
 5.89     39.8462  22.2139     215.9987   1170.4801  -0.96     0.941     0.732   0.2549         17     50.69699
 5.61     45.8528  22.0087     260.9156    440.1219 -39.18     1.403     1.002   0.2843         18     68.31482
 3.50     43.2798  22.8573     119.4159    915.3459 -44.82     1.174     0.700   0.2897         19     31.85195
 3.50     80.9599  16.4788     42508.83    537.4124 -67.89     2.020     1.918   0.0018         20     71.22312
 6.55     51.1657  22.3288     194.3075    265.9853  36.65     0.939     0.465   0.2539         21     45.41928
 6.43     51.0299  22.9232      112.389   1435.2108 -33.32     0.788     0.497   0.3893         22     40.28988
 0.00     49.3377  99.0000    -25.75085   1233.6754  45.58     0.575     0.334  99.0000         23     30.21741
 3.50     75.9613  20.3297      1224.96    127.6706  65.45     1.364     1.260   0.0412         24     46.52275
 5.74     82.8388  21.3431     481.6984    421.4473 -51.35     1.212     0.808   0.1324         25     58.73209
 4.96     91.5984  20.4604     1086.052    376.7576 -72.96     1.865     1.539   0.0864         26     86.45129
 3.50    122.5939  16.0507     63052.57    788.9185 -58.39     2.100     1.956   0.0013         27     72.86604
 3.56     97.3459  19.8138     1970.008     56.0111  -6.65     1.519     1.385   0.0296         28     53.61481
 6.17     92.9185  21.8891      291.307    495.8493  75.14     1.341     0.684   0.2253         29     60.43482
 6.08     98.7694  21.1805     559.5195    452.5779 -24.86     1.703     0.981   0.1576         30     81.20685
 8.03    114.3488  22.8516     120.0485    270.3333 -45.61     0.584     0.329   0.3409         31     37.68773
 7.06    117.8673  22.6733     141.4728     66.8318  46.85     0.748     0.562   0.3627         32     47.24407
 6.06    118.7044  24.1032      37.9054    990.6282 -41.71     0.576     0.332   0.7990         33     27.88941
 8.26    118.5058  22.9989     104.8192    154.4909  45.33     0.502     0.498   0.4345         34     41.93504
 3.50    163.1394  16.6823      35243.8   1468.1359 -60.49     1.999     1.918   0.0022         35     70.02601
 5.15    132.4923  22.5344     160.7827    418.0414   0.53     0.805     0.500   0.2389         36     35.37335
 3.50    171.1355  18.3477     7602.099    877.1223 -68.19     1.765     1.708   0.0089         37     62.36261
 6.86    152.5081  23.1534     90.91785   1279.9960  -1.46     0.803     0.500   0.5198         38     43.51804
 3.58    165.8672  21.3871     462.5464   1445.5352  -0.27     1.320     1.134   0.1058         39     45.04546
 4.17    167.5935  21.4246     446.8425    104.3066 -28.86     1.173     1.010   0.1113         40     45.79006
 5.08    170.4301  22.3792     185.4955   1368.2188 -47.27     1.080     0.717   0.2702         41     46.15786
 5.71    169.4399  23.9170     44.99719    651.5150 -35.83     0.503     0.493   0.7157         42     29.65255
 4.38    181.2359  22.4595     172.2729    574.8821  23.27     1.275     0.773   0.2840         43     45.04546
 4.34    193.3881  20.8467     760.8519   1350.3932 -35.34     1.357     1.131   0.0792         44     55.47484
 8.45    186.9875  21.1704     564.7144   1354.0367 -74.12     0.796     0.783   0.1314         45     68.31482
 3.65    211.5628  18.9675      4295.55    827.4517  -6.95     3.903     1.922   0.0261         46     103.0481
 3.50    207.5028  20.1019     1510.909    548.9205 -81.19     1.547     1.367   0.0369         47     51.35972
 3.50    211.4505  21.6390      366.777    684.4575 -82.33     1.680     1.042   0.1451         48     49.00095
 3.50    212.9739  20.2542     1313.162   1305.9010  53.86     1.403     1.346   0.0399         49     48.30587
 4.26    231.0617  18.9350     4425.835    562.2328  -9.15     3.351     2.841   0.0332         50     135.1364
 3.50    204.4279  24.4287     28.08826   1498.4841 -36.26     0.505     0.489   0.7789         51     20.14494
 8.15    205.6816  23.5980     60.36682    937.0054 -28.40     0.896     0.214   0.6780         52     37.68773
 3.61    224.5214  20.0223     1625.863   1225.8654 -53.91     1.549     1.417   0.0369         53     55.16919
 3.50    260.5747  15.5858     96753.55    997.2193 -61.30     2.158     2.026   0.0008         54     74.47273
 3.50    266.7132  15.7835     80652.63     67.3777 -78.85     2.116     1.998   0.0010         55     73.55892
 3.50    223.2263  21.2862     507.6001    774.7523 -19.32     1.202     1.068   0.0880         56     41.12069
 7.24    219.2476  22.5799     154.1835    740.7269 -18.84     0.845     0.353   0.2867         57     40.70741
 4.29    244.2685  20.1346     1466.035    112.8207  77.16     2.123     1.544   0.0589         58     79.52362
 4.43    256.2211  19.1415     3659.226    612.7919 -37.89     2.500     1.801   0.0287         59     96.78661
 5.85    239.8068  21.2513     524.1688    838.5142 -15.30     1.259     0.961   0.1363         60      65.7931
 4.86    240.0475  23.7487      52.5459   1478.8186 -53.94     0.940     0.464   0.6799         61     32.89655
 6.94    251.4614  21.1348     583.5558    107.4959 -45.23     1.084     0.836   0.1271         62     68.31482
 6.35    252.5684  19.5828     2437.225   1372.6412 -34.52     1.181     0.845   0.0320         63     71.71343
 3.50    288.3401  17.3833      18479.4   1486.2775 -54.62     1.867     1.775   0.0039         64      65.7931
 4.01    254.0000  23.2829     80.69226   1352.5071   0.00     1.051     0.289   0.3131         65     23.26137
 3.50    282.7326  19.1284     3703.887   1522.1934 -43.51     1.560     1.487   0.0163         66     55.47484
 6.90    271.2608  21.7390     334.4915   1273.5475 -11.09     1.161     0.926   0.2388         67     73.55892
 3.50    303.9948  17.7455     13237.45    201.5974 -73.98     1.829     1.713   0.0053         68     64.49528
 6.05    294.2973  21.0192     649.1007   1475.4902 -66.12     1.169     0.976   0.1118         69     66.81321
 3.50    302.8704  21.2099     544.5355    563.5295  64.72     1.317     1.259   0.0906         70     45.41928
 3.50    322.8517  18.2091     8636.747    697.1325 -67.45     1.711     1.657   0.0076         71     60.15438
 6.40    309.7060  21.1060     599.2522     85.4069 -81.45     1.983     0.885   0.1595         72     88.00211
 4.29    322.2261  20.8924      729.525    641.0490 -74.76     2.205     1.229   0.1085         73     72.86604
 4.27    328.1181  20.0114     1642.316    595.2687 -49.81     1.622     1.556   0.0457         74     69.05338
 5.36    317.8036  23.0781     97.44946    226.3809 -71.76     0.752     0.447   0.3490         75     31.31658
 5.35    332.8581  21.5544     396.5076     93.4377  -7.83     1.068     0.836   0.1451         76      52.9803
 4.19    330.3325  22.4805     168.9613   1545.6162  -6.15     0.994     0.631   0.2147         77      33.4066
 3.50    350.8575  20.9481     693.0538     54.4747 -39.25     1.290     1.224   0.0700         78      44.6685
 5.14    348.6108  22.6398     145.9069     42.2829 -59.05     0.983     0.545   0.2936         79     39.44158
 3.50    368.9763  18.1719     8937.721    760.8814 -55.04     1.738     1.635   0.0073         80     59.87262
 3.50    362.0320  20.1951     1386.581   1500.1699  10.20     1.429     1.398   0.0394         81     50.36235
 3.50    396.0084  16.3886     46193.24    231.2756 -59.51     2.003     1.932   0.0016         82     70.02601
 3.50    361.5096  22.0268     256.6178   1033.6727 -46.62     1.047     0.903   0.1456         83     34.40403
 3.55    374.0851  21.9530     274.6603   1083.9071 -43.95     1.458     0.919   0.1674         84     42.33634
 6.13    369.9420  22.4721     170.2733    210.5096  87.58     0.786     0.499   0.2516         85     39.44158
 6.59    371.1455  21.3645     472.2621     71.4292 -16.36     1.204     0.716   0.1459         86     63.43791
 6.30    376.9420  20.7433     836.9331    753.8722  42.08     1.653     0.852   0.1001         87     77.14925
 3.50    397.8753  18.6221     5904.443   1461.0035 -57.52     1.678     1.607   0.0108         88     58.73209
 5.17    376.6144  22.7241     135.0125     86.3840  23.01     1.364     0.457   0.3373         89     41.93504
 3.50    398.9595  18.4102      7176.74    354.4040 -56.85     1.757     1.640   0.0094         90     61.81795
 5.97    380.9103  22.2223     214.3243    125.6369 -22.70     0.902     0.682   0.2465         91     48.65465
 3.50    394.4868  20.1725     1415.734   1088.6790 -16.48     1.485     1.357   0.0394         92     51.35972
 6.62    389.7516  23.3665     74.71216   1195.2408 -86.38     0.902     0.749   0.8196         93     56.38185
 6.59    390.2306  23.3062     78.97778    260.4030  71.18     0.744     0.452   0.5304         94     38.57462
 5.92    397.9349  21.1836     557.8801    626.5078  15.77     1.528     0.795   0.1315         95     67.56818
 7.14    415.6719  20.2216     1353.161      2.5615  28.95     1.141     0.754   0.0445         96     55.47484
 5.89    407.6978  22.5846     153.5226    281.6329 -82.40     1.007     0.467   0.3023         97     42.73387
 7.73    404.5130  21.9535     274.5437    526.8869  -2.02     0.784     0.499   0.1979         98     50.02547
 3.50    461.8477  15.2299     134287.9    807.3699 -55.93     2.140     2.040   0.0006         99     75.59946
 7.26    413.7131  22.3692     187.2142   1562.2982 -60.78     1.155     0.451   0.3128        100     53.92928
 3.50    438.7642  17.6571     14360.83    251.9271 -54.88     1.813     1.728   0.0048        101     63.96878
 4.91    421.8596  20.5865     966.9092    158.7295  50.88     1.660     1.444   0.0879        102     78.23744
 5.46    412.6987  25.4840     10.62671    199.3263  43.64     0.560     0.342   2.5905        103     25.34849
 6.30    419.4074  22.6817     140.3813   1203.2559   2.22     1.263     0.791   0.5030        104     65.01752
 9.11    415.3150  22.4604     172.1277    558.6299  42.87     0.584     0.328   0.2542        105     40.28988
 3.50    433.6354  20.5526     997.5647   1421.9039 -17.73     1.429     1.338   0.0545        106     50.02547
 6.72    427.7105  21.4987     417.3778   1179.3110  20.69     1.301     0.989   0.2036        107     78.23744
 5.64    420.6244  23.9411     44.01282   1579.7715  17.88     0.757     0.446   0.8367        108     33.90899
 6.59    424.9908  23.2384     84.07031   1063.9623 -82.15     0.609     0.607   0.5205        109     40.28988
 6.86    431.8513  21.4253     446.5474    717.7710 -64.53     0.930     0.895   0.1581        110     65.01752
 5.00    434.9497  21.3273     488.7566    151.0015  25.47     1.154     0.980   0.1205        111     54.24191
 8.11    427.1310  21.5808      386.984    432.4409  -1.10     2.518     0.334   0.0808        112      28.7769
 7.74    427.6147  22.8358      121.814    299.6916 -47.83     0.587     0.325   0.3111        113     34.89206
 4.33    468.5287  18.3598     7517.286    850.1567  22.24     7.405     1.888   0.0241        114     166.5261
 3.51    451.1122  18.9132     4515.474     21.1382 -39.37     1.703     1.572   0.0143        115      59.3051
 5.35    446.1109  20.6555     907.4435    122.1262 -32.70     1.653     1.204   0.0939        116     78.45327
 3.50    440.8153  21.5034     415.5492    305.5591 -50.73     1.189     1.082   0.1075        117     41.12069
 7.22    434.6680  23.3578      75.3114    353.3014  46.60     0.562     0.341   0.4593        118     31.85195
 3.50    458.6750  18.7847     5083.169     34.3958 -60.50     1.679     1.537   0.0124        119     58.15343
 5.39    444.1707  22.7280     134.5294    654.5854 -70.40     0.757     0.448   0.2656        120     32.89655
 7.52    444.6976  22.7122     136.4989    173.3044  44.88     0.551     0.345   0.2776        121     34.89206
 3.51    464.5992  20.0755     1548.133    468.4731 -73.90     1.596     1.441   0.0385        122     54.86184
 4.25    453.8175  22.5427     159.5641   1533.1399  37.40     0.789     0.678   0.2168        123     31.85195
 4.77    461.9124  21.2729     513.8322   1096.1415  54.26     1.154     1.060   0.1160        124     54.86184
 3.50    472.0581  20.3097     1247.735    254.1115 -72.83     1.524     1.321   0.0444        125     51.02943
 5.24    462.3787  21.6772     354.0865    724.6503 -28.34     1.116     0.728   0.1460        126     47.60064
 7.33    457.6994  23.4099     71.78564   1223.6606 -43.04     0.565     0.339   0.4819        127     31.85195
 3.50    472.9619  19.9189     1788.341    734.7726 -38.59     1.496     1.347   0.0310        128     51.02943
 3.50    478.7603  19.6055     2386.678    922.8173 -35.32     1.542     1.446   0.0245        129     53.92928
 3.92    478.7928  20.6485     913.2816   1276.8333 -53.34     1.380     1.256   0.0630        130      52.9803
 4.35    476.5132  23.0864     96.70093   1168.0372 -89.76     0.813     0.676   0.3694        131     32.89655
 3.50    484.9571  20.7092     863.5992   1070.4276 -66.11     1.365     1.226   0.0585        132     46.52275
 4.94    496.9649  19.6072     2382.938     82.5904  56.28     2.338     2.068   0.0511        133     112.1623
 5.47    489.7042  20.9333     702.5497    839.5638  81.89     1.979     0.873   0.1155        134     74.69944
 4.63    481.6934  22.7076     137.0728   1309.1306  71.28     0.894     0.694   0.3056        135     38.57462
 3.61    479.8593  23.0960       95.854    682.6146  17.68     1.030     0.720   0.3548        136     31.31658
 3.88    496.4434  19.7896     2014.524   1186.7407 -14.15     2.923     1.792   0.0491        137     91.02452
 4.18    531.9177  17.7306     13420.56    519.0345  19.57     4.599     2.664   0.0100        138     123.3004
 5.97    481.6788  22.8192     123.6852   1520.4889  -0.10     0.921     0.467   0.3538        139     40.28988
 3.55    505.2574  20.6678     897.1763    763.0582  35.35     1.785     1.613   0.0758        140     62.63316
 3.50    516.2610  19.3729     2957.047   1461.0070  24.27     4.360     1.650   0.0355        141     96.78661
 3.50    502.7141  21.4211     448.2787    863.5473  86.71     1.246     1.113   0.1045        142     43.12774
 3.50    498.6335  22.3558     189.5387    366.2104 -49.90     1.014     0.951   0.2027        143     35.37335
 3.50    514.5807  21.4032     455.7524   1179.1083 -56.81     1.339     1.067   0.0999        144     41.93504
 5.57    510.5956  20.8369     767.8163    164.3583  -2.33     2.204     1.004   0.1206        145     85.26967
 4.31    520.2776  21.7678     325.7458    641.3948 -72.01     1.257     0.919   0.1599        146     47.95455
 8.43    511.4783  22.2316      212.507    453.4845  44.06     0.503     0.496   0.2143        147     41.93504
 3.50    519.1761  23.1359     92.39563   1518.8835  43.19     0.828     0.669   0.3132        148     26.64925
 4.34    541.0017  20.1277     1475.375    999.7307 -58.22     1.570     1.410   0.0490        149     66.55965
 4.08    536.7367  21.9612     272.5847    404.4981  50.90     1.364     0.752   0.1687        150     42.33634
 6.50    545.6520  22.4587     172.3976    933.8276  70.97     1.235     0.753   0.4112        151     65.27707
 3.67    559.8237  19.8154     1967.238   1041.5420 -18.80     1.576     1.487   0.0326        152     59.01929
 4.48    597.4241  18.6378     5819.399    782.7071 -83.49     3.546     3.355   0.0298        153     159.4719
 4.22    571.6400  20.0963     1518.661     45.6350  59.09     1.992     1.404   0.0523        154     73.09773
 4.23    556.2178  22.7610     130.5001    778.7784  45.56     0.804     0.683   0.2651        155     31.85195
 3.50    581.4234  18.2255     8507.214    144.8262 -85.18     1.779     1.649   0.0078        156     60.99184
 3.50    572.2887  20.2390     1331.714   1448.0997  21.34     2.785     1.717   0.0645        157     79.09722
 3.95    565.5809  21.6825      352.386    139.6900 -53.99     1.148     1.009   0.1329        158     43.12774
 3.50    582.9966  18.2263     8501.412    318.9901 -38.33     1.741     1.676   0.0078        159     60.99184
 6.39    563.6564  23.0814     97.14746    905.5596   5.49     1.049     0.627   0.6029        160     53.92928
 6.81    576.9733  21.9936     264.5885   1001.5247 -66.98     1.399     1.121   0.3636        161     88.57667
 3.50    585.4980  21.3336     485.9347     75.9934  34.12     1.282     1.160   0.0990        162     44.28833
 7.52    579.6700  23.0736     97.84924    740.6813 -45.55     0.569     0.338   0.3763        163     33.90899
 5.26   1004.8461  23.0478     100.1992   1237.8387  49.76     0.764     0.567   0.3885        164     35.84818
 4.64   1597.9813  21.1695     565.2075    655.1420 -30.36     1.787     1.341   0.1198        165     62.36261
 5.62   1595.9124  21.8013     315.8369    374.0342  41.13     1.272     1.258   0.2357        166     68.56189
 6.89   1594.0922  21.7053     345.0372   1384.9442 -19.49     1.473     0.518   0.1937        167     61.54381
 6.99   1592.8507  24.9704     17.05505    567.1038  41.77     0.836     0.671   3.4539        168     54.24191
 3.50   1586.8704  23.0078      103.962   1069.2076 -26.32     0.977     0.733   0.3214        169      30.7719
