#   1 KRON_RADIUS            Kron apertures in units of A or B                         
#   2 Y_IMAGE                Object position along y                                    [pixel]
#   3 MAG_BEST               Best of MAG_AUTO and MAG_ISOCOR                            [mag]
#   4 FLUX_BEST              Best of FLUX_AUTO and FLUX_ISOCOR                          [count]
#   5 X_IMAGE                Object position along x                                    [pixel]
#   6 THETA_IMAGE            Position angle (CCW/x)                                     [deg]
#   7 A_IMAGE                Profile RMS along major axis                               [pixel]
#   8 B_IMAGE                Profile RMS along minor axis                               [pixel]
#   9 MAGERR_BEST            RMS error for MAG_BEST                                     [mag]
#  10 NUMBER                 Running object number                                     
#  11 FLUXERR_BEST           RMS error for BEST flux                                    [count]
 4.25     94.1570  18.7214     5388.219   1124.7493 -68.11     8.199     3.769   0.0710          1     352.4183
 4.95     47.3470  21.1073      598.504     46.5410 -16.09     3.493     3.138   0.4437          2     244.5283
 3.50     32.9521  20.2701     1294.079    449.8849 -71.56     1.861     1.763   0.0797          3     94.91114
 3.50      7.8402  18.0859     9674.383    752.8575 -61.82     2.123     2.040   0.0123          4     109.8095
 0.00      7.3287  99.0000    -65.39221   1284.2866 -47.46     0.554     0.344  99.0000          5     52.59538
 5.06      3.8817  22.5138     163.8595     72.1736 -16.48     1.297     1.175   0.5665          6     85.47398
 7.09      3.6434  22.3148     196.8168    946.9975 -11.20     1.397     0.946   0.5951          7     107.8542
 6.93      2.7658  22.8389     121.4576    934.9667   5.19     1.486     1.178   1.0019          8     112.0474
 5.98      1.3488  24.5513     25.08984   1254.5757  -1.93     0.882     0.476   2.0622          9     47.64204
 6.38      1.0000  24.9947     16.67749   1325.0350   0.00     0.860     0.289   2.4526         10     37.66434
 8.37     13.0423  22.7002     138.0116    858.5358  89.71     0.808     0.499   0.6217         11     79.00538
 7.51     27.2427  22.0416     253.1285    906.0284  62.58     1.235     1.115   0.5644         12     131.5559
 0.00     19.4468  99.0000    -26.31555    234.2249  20.99     0.737     0.451  99.0000         13     60.14512
 0.00     24.1636  99.0000    -130.8538    896.5063  -0.34     0.979     0.746  99.0000         14     103.8334
 3.50     32.3549  23.0340     101.4799   1514.8187  89.71     1.186     1.023   0.6113         15      57.1208
 6.47     27.5052  27.7166     1.359497    374.4735  45.86     0.511     0.488  38.0576         16     47.64204
 5.35     33.3109  24.8310     19.39075      7.0528 -29.41     0.877     0.600   3.2337         17     57.73833
 7.27     32.5028  22.3032     198.9344    914.0272  -0.56     0.785     0.500   0.3791         18     69.44961
 4.86     69.0796  20.0588     1572.029   1463.1573 -72.90     2.832     2.480   0.1331         19     192.6044
 4.92     47.9787  23.9466     43.78674    228.2468  34.97     0.788     0.492   1.1053         20     44.56504
 5.48     49.6894  25.6418     9.188843    343.8810 -30.33     0.884     0.599   7.1777         21     60.73192
 3.50     48.6995  25.3065     12.51392   1227.5970 -41.42     0.589     0.322   1.7903         22     20.62961
 8.16     50.9994  23.9834     42.33069    205.2584  89.97     0.683     0.438   1.7150         23     66.84756
 5.15     63.4169  22.6515     144.3385    888.7960 -31.82     3.064     0.817   0.9248         24     122.9151
 4.55     61.9151  22.2708      204.969   1014.1193  49.58     1.303     1.242   0.4551         25      85.8879
 3.50     95.2679  18.4655     6820.411    916.6253 -19.93     2.422     2.058   0.0185         26     116.0893
 5.83     64.5669  20.9978     662.0287    893.1599 -16.96     2.011     0.917   0.1237         27     75.41048
 6.77     80.7907  22.1394     231.3245    541.1888 -68.13     2.157     1.464   0.8425         28     179.4499
 4.77     65.6199  23.0376     101.1521    970.7142 -47.07     1.062     0.962   0.7831         29     72.93668
 5.02     77.5636  22.5888     152.9276    183.5630  37.16     1.710     1.612   0.8749         30     123.2033
 3.55     94.6228  21.0721     618.2404    346.8269 -35.99     1.677     1.593   0.1537         31     87.52401
 5.25     93.1689  24.1698     35.65125    737.2796  14.59     1.251     1.167   2.8568         32     93.78344
 8.20     88.5198  23.2155     85.86304   1025.5172  44.87     0.510     0.489   0.7681         33     60.73192
 4.37    106.6651  21.4021     456.1895    973.7143 -40.27     2.136     1.690   0.2940         34     123.4908
 3.53    106.5207  21.1121      595.885     47.5245 -36.46     1.582     1.560   0.1496         35     82.08752
 6.54    100.5170  22.4720     170.2999    356.8520 -25.56     1.159     1.063   0.6940         36     108.8363
 3.50     98.5842  24.8021     19.91321    326.1557 -76.66     1.017     0.724   2.3866         37       43.762
 6.50     94.3919  23.4225     70.95984   1248.7111 -17.31     0.722     0.459   0.8452         38     55.22676
 0.00     99.6920  99.0000    -38.62317    173.3035  45.27     0.553     0.345  99.0000         39     53.26542
 8.06    106.0233  22.0813     244.0471    266.4735 -26.77     1.097     0.647   0.4559         40     102.4581
 4.83    115.4942  22.6797     140.6499    924.7029  69.09     1.227     1.049   0.6338         41     82.08752
 3.66    125.6434  21.2713     514.6034    300.7448 -25.91     1.673     1.549   0.1864         42      88.3307
 5.28    110.8920  22.5260      162.037   1457.8762 -43.13     0.852     0.658   0.3911         43     58.34934
 5.57    118.1392  21.8068     314.2522     79.4567  35.20     1.594     1.028   0.3670         44     106.1974
 5.84    111.6869  23.4931     66.48877   1000.3212  44.58     0.563     0.341   0.6304         45     38.59446
 7.47    113.3548  23.6175     59.29517    460.6852  46.69     0.578     0.332   0.8726         46     47.64204
 0.00    114.4853  99.0000    -1.744263     65.9743   2.48     0.781     0.499  99.0000         47     41.25921
 3.50    151.1911  19.0524     3972.138     45.4971 -66.61     2.041     1.875   0.0361         48     132.0894
 3.50    212.7002  15.9107     71733.23    966.9963  67.45     3.034     2.400   0.0021         49      140.927
 4.55    130.1674  23.1421     91.86328     55.4243  86.66     1.181     0.973   0.8565         50      72.4488
 0.00    133.8928  99.0000    -10.95288   1498.3713  36.64     1.003     0.833  99.0000         51     71.46306
 5.56    135.5188  23.4026     72.26917    735.5063 -70.98     0.956     0.414   0.8004         52     53.26542
 3.50    140.9441  22.5672     155.9937    218.5828  77.42     1.254     0.994   0.4062         53     58.34934
 4.75    158.6899  17.6886      13949.7     50.1477  10.83     2.348     2.026   0.0161         54     206.3638
 4.56    173.5511  21.2021     548.4611    556.9188  77.23     2.496     2.317   0.3234         55     163.3087
 6.34    144.6918  24.5623     24.83667   1194.3496  43.12     0.573     0.335   1.9135         56       43.762
 4.48    152.7633  28.4771    0.6748047    879.2148 -71.16     0.960     0.844  98.6745         57      61.3131
 4.57    183.9569  21.1592     570.5751   1262.7585 -84.47     2.679     2.323   0.3254         58      170.948
 0.00    164.2391  99.0000    -1.681519   1521.2362 -68.47     1.229     1.012  99.0000         59     88.73129
 5.85    166.0432  22.0217     257.8206    745.9159 -22.96     1.387     1.130   0.4543         60     107.8542
 5.41    163.4534  23.8692     47.02332   1154.1659  29.17     1.143     0.805   1.7827         61     77.18892
 3.50    185.4392  20.1047     1507.056    377.8520  44.06     1.855     1.791   0.0687         62     95.28407
 6.81    169.3121  23.5631     62.34009   1159.0532  72.00     1.088     0.734   1.6005         63     91.87319
 5.72    164.5888  25.4506      10.9585    871.5212 -37.71     0.510     0.481   4.2558         64     42.94395
 6.12    173.3908  24.1985     34.72083    944.2777  23.96     1.450     1.084   3.5635         65     113.9307
 7.83    164.0000  23.9688      42.9032    757.9688   0.00     0.857     0.289   1.5224         66     60.14512
 6.57    174.5070  22.1931     220.1809    961.2061 -89.43     0.936     0.726   0.3984         67     80.78101
 3.50    237.4089  16.4929     41959.82   1389.3002 -60.89     2.351     2.198   0.0031         68     119.4025
 6.38    188.7956  20.4913     1055.513   1070.2379 -66.16     1.461     1.296   0.0860         69     83.57803
 0.00    195.9452  99.0000    -23.49109   1065.9102 -53.12     1.931     1.731  99.0000         70     183.9393
 4.45    205.1032  18.0154     10323.62    985.2596 -83.24     1.782     1.741   0.0188         71      178.355
 3.57    206.2079  20.6080     947.9448     21.3743 -77.09     1.693     1.604   0.1012         72      88.3307
 4.34    201.3544  23.6853     55.70471    185.4896  86.30     1.485     1.274   1.7531         73     89.92237
 7.05    189.0036  23.6392     58.11951   1594.2350 -89.83     0.680     0.424   1.0439         74     55.86524
 0.00    191.5366  99.0000    -46.94153   1097.4672  44.41     0.505     0.492  99.0000         75     33.68801
 3.50    224.9645  19.3083     3138.182   1092.9434 -75.05     1.945     1.811   0.0341         76       98.577
 4.38    204.9958  22.5346     160.7466    353.2603  49.54     1.546     1.354   0.6412         77     94.91114
 6.59    201.9016  23.5985     60.33936    411.7759  22.68     1.623     1.125   2.3919         78     132.8969
 7.27    201.7012  24.5303     25.57764   1294.1659 -70.66     1.030     0.553   3.4854         79     82.08752
 3.95    219.1305  21.3974     458.1718   1020.2579 -10.95     2.049     1.908   0.2788         80     117.6069
 3.90    216.9382  21.9443     276.8645   1198.2729 -67.75     1.806     1.434   0.3649         81     93.02405
 4.80    209.8886  25.6659     8.987915    908.2451 -60.11     1.031     0.637   7.1233         82     58.95401
 4.71    268.0666  20.9914     665.9565    140.2715  63.45     5.455     1.957   0.3741         83     229.4126
 3.88    223.2836  22.1774     223.3821   1178.1260  36.13     1.421     1.146   0.3639         84     74.85639
 6.87    213.4799  23.0221     102.6055   1061.5094  44.65     0.512     0.487   0.5043         85     47.64204
 5.89    243.6765  22.4300     177.0116    660.2729  56.74     2.330     2.070   1.1828         86     192.7884
 0.00    232.5093  99.0000    -101.8234    654.0221   4.33     2.686     1.524  99.0000         87     217.6725
 3.64    243.0972  20.5617      989.307    566.2015  29.51     1.831     1.749   0.1082         88       98.577
 3.50    258.9529  19.8189     1960.824   1426.3889 -55.02     2.082     1.737   0.0542         89     97.85482
 4.32    236.7304  21.6445     364.9086    836.5421 -23.65     1.479     1.402   0.2734         90     91.87319
 4.43    234.4972  22.9214     112.5758    879.8083 -56.66     1.317     1.124   0.7750         91     80.34077
 3.65    247.8586  19.2069     3445.366    576.9484  28.21     1.725     1.657   0.0541         92     171.6146
 5.68    241.6002  22.1763     223.5986    368.8590 -66.00     1.584     1.499   0.6376         93      131.286
 3.50    231.4599  24.6733     22.42139   1316.5281 -43.68     0.508     0.490   1.4131         94     29.17467
 6.87    256.0625  21.6637     358.5204     76.0572 -78.27     2.310     1.137   0.5057         95     166.9597
 3.82    286.3719  19.5485     2515.345   1328.0706 -62.90     3.890     3.155   0.0860         96     199.1229
 5.62    254.1811  21.0323     641.3165   1369.5127 -46.50     1.972     1.808   0.2683         97      158.459
 4.51    238.3008  24.9723     17.02539   1316.6440  42.47     0.572     0.335   1.8610         98     29.17467
 7.32    243.0217  23.3977     72.59558    966.3827 -11.22     1.220     0.776   1.5887         99     106.1974
 8.17    249.4651  22.4302      176.975   1163.2465 -87.55     1.011     0.708   0.6309        100     102.8036
 4.76    251.7740  23.7736     51.35339    914.5338 -22.40     1.742     0.609   1.5629        101     73.90276
 6.79    262.3152  23.9286     44.52014    410.3904 -36.29     1.932     1.068   3.5465        102     145.3863
 4.93    296.6697  20.6402     920.2648    374.3661  32.26     5.369     2.131   0.2938        103     248.9838
 4.63    279.1549  21.7378     334.8699   1128.3959 -42.43     2.378     1.745   0.4562        104     140.6752
 5.14    265.0267  22.3965     182.5574    271.3459  62.87     1.163     0.935   0.4779        105     80.34077
 4.02    265.3846  23.8457     48.05151    721.8150  85.12     0.992     0.380   0.8512        106     37.66434
 0.00    266.8948  99.0000     -94.1571    766.6589  13.69     1.008     0.750  99.0000        107     71.95762
 5.75    267.8004  24.0632     39.32861   1587.3848 -72.59     0.760     0.451   1.4146        108     51.22904
 3.50    281.3238  21.2875     506.9786    954.9826 -84.42     1.527     1.520   0.1721        109     80.34077
 3.50    286.3437  21.7721     324.4597    743.1180  68.50     1.558     1.417   0.2584        110     77.18892
 0.00    279.5313  99.0000    -4.747314    885.4368 -74.77     0.499     0.496  99.0000        111     37.66434
 4.28    313.5876  20.9116     716.7312    792.2487  34.69     2.350     1.960   0.2085        112     137.6166
 0.00    298.8550  99.0000     -15.8158    863.1819   4.80     1.090     0.985  99.0000        113     100.3597
 3.50    338.2658  19.2434     3331.556    595.9975  86.26     1.988     1.823   0.0326        114     100.0057
 3.50    374.0516  16.4497     43661.93   1262.5981 -43.64     2.343     2.212   0.0030        115      118.807
 0.00    314.6675  20.6126     943.9536    802.7544 -18.94     1.737     1.419   0.1142        116     99.23978
 3.50    332.8217  20.2741     1289.343    788.9773  77.38     1.801     1.696   0.0764        117     90.70773
 7.92    310.6430  23.8566     47.57153   1549.2216 -16.94     0.748     0.446   1.5620        118     68.42067
 0.00    323.1217  99.0000    -97.83313    832.5522  78.74     1.122     1.038  99.0000        119     97.49172
 5.08    323.1987  22.3977     182.3545    288.7291  15.01     1.259     1.110   0.5308        120     89.13009
 3.58    335.5175  23.1386     92.16431   1145.5067  -3.58     2.145     1.792   1.2315        121     104.5143
 4.64    328.8070  21.9268     281.3821    720.3349   3.49     1.256     1.173   0.3299        122     85.47398
 7.17    326.4636  24.7052     21.77393    156.8145  84.35     1.010     0.378   3.2265        123     64.69062
 5.31    334.9207  21.7153     341.8988    661.6074  26.59     1.595     1.397   0.3755        124     118.2084
 0.00    335.5432  99.0000    -64.23389   1037.4845 -50.33     1.435     0.834  99.0000        125     108.1826
 4.62    361.3767  20.7508     831.1431    708.3899 -68.65     2.379     2.219   0.2073        126     158.6827
 7.08    347.7137  21.9908     265.2556   1598.6823 -79.01     1.124     0.968   0.3698        127     90.31591
 3.60    375.0627  20.3375     1216.193   1363.9340   2.09     3.088     2.411   0.1309        128     146.6009
 5.22    360.9517  22.1419     230.8101    640.6298  75.08     1.416     1.325   0.5044        129     107.1946
 7.34    348.8523  23.0340       101.48   1576.8534  47.93     0.767     0.569   0.7594        130     70.96505
 3.50    363.9760  21.8947     289.8167    504.0932 -14.26     1.535     1.436   0.2944        131     78.55521
 9.13    358.2023  22.3648     187.9595   1050.3724  72.23     0.754     0.446   0.4513        132     78.10243
 5.78    369.4063  21.7335     336.2146   1341.4336  28.52     1.585     0.990   0.3494        133     108.1826
 7.95    359.4590  25.0489     15.86462   1094.5118 -21.09     0.500     0.498   4.1574        134     60.73192
 0.00    369.6529  99.0000    -1.195068    643.0444 -67.01     1.486     0.435  99.0000        135     84.64007
 8.31    363.6567  23.5043     65.80835     97.3249  45.78     0.578     0.333   0.9007        136     54.58081
 3.56    389.2385  20.6093     946.8671   1463.0966  57.58     1.796     1.631   0.1036        137     90.31591
 4.08    401.0529  20.3294     1225.293    824.7330  48.37     3.253     2.740   0.1617        138     182.3903
 4.81    377.7523  22.5656     156.2285    162.8285 -35.17     1.129     1.085   0.5523        139       79.453
 3.50    385.9117  22.1276     233.8534    867.6343 -73.67     1.442     1.322   0.3387        140     72.93668
 0.00    383.3534  99.0000    -49.81128   1277.6696  75.68     1.166     1.055  99.0000        141     107.8542
 3.50    392.8899  21.8021      315.614   1317.5302 -48.64     1.483     1.396   0.2592        142     75.32867
 4.52    451.1505  20.4721     1074.396   1219.8578  56.07     6.476     2.500   0.2737        143     270.8168
 3.50    413.7905  19.5361     2544.164     67.1341 -60.83     1.974     1.853   0.0428        144     100.3597
 0.00    391.2280  99.0000     -63.2666   1206.1643 -88.79     1.130     0.746  99.0000        145     86.70982
 3.50    417.1918  19.1994     3469.396   1307.9253  37.73     1.929     1.914   0.0314        146     100.3597
 7.10    413.1869  22.5158     163.5651    665.6929  81.38     1.328     0.991   0.8123        147     122.3366
 7.54    410.2010  26.8057      3.14563    749.6277 -26.28     1.191     0.770  36.7788        148     106.5308
 3.50    458.0979  17.7849     12765.98     12.4038 -59.41     2.124     2.082   0.0093        149      109.486
 0.00    420.3788  99.0000     -180.677    101.8098  71.35     1.223     0.902  99.0000        150     111.0938
 0.00    415.5115  99.0000    -60.47803   1157.4949 -44.64     0.504     0.496  99.0000        151     65.23655
 8.79    420.2401  22.8748     117.5088    890.9982   1.82     0.800     0.551   0.8089        152     87.52401
 7.59    421.2487  23.9158     45.04651   1572.0276  -1.34     0.693     0.432   1.4782        153      61.3131
 6.96    425.6347  23.5449     63.39502    962.6557 -44.37     0.851     0.522   1.1984        154      69.9584
 3.75    439.7845  23.0993     95.56433    908.6335 -52.06     1.883     1.435   1.0441        155     91.87319
 3.50    466.2373  18.4597     6856.845   1074.6401 -82.23     2.009     1.929   0.0164        156     103.4913
 4.93    439.3988  22.4764     169.6056    814.9534 -86.52     0.990     0.950   0.4639        157      72.4488
 4.06    450.3367  21.6467     364.1923    174.3367  24.26     1.781     1.447   0.2918        158     97.85482
 3.66    449.1495  23.1765     89.00525    290.5052  -2.34     1.266     1.220   0.8348        159     68.42067
 3.75    462.7975  22.2959     200.2791    275.5684  22.46     1.563     1.439   0.4590        160     84.64007
 4.60    457.7794  22.9896     105.7178   1159.6694  30.96     1.323     1.096   0.8608        161     83.79786
 4.24    464.8949  22.9556     109.0868   1190.3889  89.16     1.284     1.008   0.7164        162     71.95762
 5.44    462.5362  23.6282     58.70984   1091.4558  46.22     1.073     0.828   1.4193        163     76.72809
 7.04    458.3414  24.1419     36.58032    977.3062 -46.69     0.569     0.338   1.3231        164     44.56504
 3.50    488.4671  20.3886     1160.307    573.8985  65.18     1.749     1.715   0.0838        165     89.52711
 3.50    478.8458  22.7144       136.22   1017.2892 -36.08     1.346     1.227   0.5371        166     67.37601
 0.00    474.5374  99.0000    -47.74182   1137.3838  51.60     1.144     0.789  99.0000        167     87.11787
 0.00    473.0392  99.0000     -65.7854    250.0121 -88.81     0.629     0.610  99.0000        168      69.9584
 0.00    480.7053  99.0000    -26.69702   1570.9915 -56.06     1.184     0.443  99.0000        169     86.70982
