#   1 KRON_RADIUS            Kron apertures in units of A or B                         
#   2 MAGERR_APER            RMS error vector for fixed aperture mag.                   [mag]
#   3 Y_IMAGE                Object position along y                                    [pixel]
#   4 X_IMAGE                Object position along x                                    [pixel]
#   5 THETA_IMAGE            Position angle (CCW/x)                                     [deg]
#   6 FLUX_APER              Flux vector within fixed circular aperture(s)              [count]
#   7 A_IMAGE                Profile RMS along major axis                               [pixel]
#   8 B_IMAGE                Profile RMS along minor axis                               [pixel]
#   9 FLUX_RADIUS            Fraction-of-light radii                                    [pixel]
#  10 FLUXERR_APER           RMS error vector for aperture flux(es)                     [count]
#  11 MAG_APER               Fixed aperture magnitude vector                            [mag]
#  12 NUMBER                 Running object number                                     
 4.06   0.0028     54.8102     63.6162   7.95     28239.57     4.204     3.866     11.604     73.13549  16.9229          1
 4.70   0.0164     18.1055    984.9224 -87.76     4828.448     3.562     1.819      9.541     73.11065  18.8405          2
 3.50   0.0232     19.5111     91.2539 -74.58     3416.113     1.594     1.593      3.972     73.11893  19.2162          3
 3.56   0.0079     16.2668   1445.6176   5.53     9998.601     1.890     1.805      4.509     73.17689  18.0502          4
 4.37   0.1459     26.1560    366.6079  16.67      544.858     1.016     0.880      3.215     73.18516  21.2093          5
 3.50   0.0017     61.3924   1078.3998  50.84     45631.54     2.294     2.198      4.958     73.12721  16.4018          6
 3.50   0.0018     81.5718    537.4313  -5.04     44296.07     2.231     2.187      4.877     73.18516  16.4341          7
 3.50   0.0001    183.5919   1107.5521 -24.07     797557.1     4.890     4.553      9.027     73.19344  13.2956          8
 3.90   0.0612     76.6700    128.0600  63.24     1298.369     1.316     1.219      3.494     73.14378  20.2665          9
 3.50   0.0012    123.3897    788.9986  15.16     65603.75     2.311     2.260      4.948     73.14378  16.0077         10
 4.09   0.0364     98.1763     56.0645  12.14     2184.772     1.461     1.381      4.156     73.17689  19.7015         11
 8.72   0.1361     99.7577    453.0021   0.10     583.8082     0.695     0.428      4.169     73.18516  21.1343         12
 3.50   0.0003    195.1722    317.9897 -45.18     279419.6     2.614     2.518      5.113     73.16861  14.4344         13
 3.50   0.0021    163.8853   1468.2463   6.52     37147.57     2.168     2.119      4.778     73.14378  16.6252         14
 3.95   0.0094    171.8063    877.2582 -13.05     8468.945     1.849     1.810      4.901     73.20171  18.2304         15
 6.26   0.0821    166.6234   1445.5895 -45.57     967.5662     1.074     0.955      5.103     73.16033  20.5858         16
 6.27   0.0559    173.0470    325.1680  -4.64     1422.177     1.249     1.149      6.752     73.18516  20.1676         17
 7.19   0.1919    168.1921    104.1895  44.40      413.948     0.754     0.563      3.699     73.12721  21.5076         18
 4.85   0.0030    236.3907    403.5207 -42.71      26187.2     5.571     4.586     18.395     73.16861  17.0048         19
 6.14   0.0703    194.1268   1350.6166  55.74     1131.199     1.147     1.041      5.809     73.20998  20.4162         20
 5.77   0.0217    212.2842    827.3955  -7.78     3660.152     3.064     1.803     11.542     73.15205  19.1413         21
 5.10   0.0415    208.3243    548.9987  14.64     1915.452     1.403     1.345      5.298     73.18516  19.8443         22
 6.34   0.0777    210.3540    349.7424  51.36     1022.557     1.187     1.029      5.414     73.15205  20.5258         23
 3.83   0.0488    213.7674   1306.0284  -4.51      1628.18     1.489     1.313      3.884     73.17689  20.0207         24
 9.38   0.1169    212.9898    684.5063 -57.67      679.267     0.791     0.316      3.659     73.13549  20.9699         25
 3.50   0.0007    261.3132    997.3710 -23.07     119840.5     2.403     2.367      4.929     73.15205  15.3535         26
 6.49   0.0247    231.9824    561.7929   6.10     3218.194     2.483     2.286     12.276     73.13549  19.2810         27
 4.02   0.0424    225.6863   1226.0515  38.45     1874.589     1.477     1.312      3.958     73.12721  19.8677         28
 6.12   0.0934    224.2461    774.5557 -15.37     851.4363     1.009     0.965      4.572     73.19344  20.7246         29
 3.50   0.0009    267.4353     67.6016  -3.84     83710.12     2.371     2.303      4.925     73.15205  15.7431         30
 7.01   0.0615    245.6219    113.0311 -81.84     1292.055     1.356     1.122      7.602     73.16033  20.2718         31
 5.62   0.0222    256.8119    612.8681 -22.48      3584.87     2.112     1.770      8.631     73.20171  19.1638         32
 7.99   0.1172    253.1951   1372.6124 -71.84     677.5327     0.758     0.448      3.983     73.12721  20.9727         33
 3.50   0.0002    313.6460    439.4265 -24.89     343053.1     2.632     2.551      5.145     73.19344  14.2116         34
 3.50   0.0040    289.1028   1486.3685  -1.22     19839.61     2.022     1.962      4.588     73.10236  17.3062         35
 4.05   0.0181    283.4547   1522.2284  -4.74     4399.154     1.677     1.596      4.420     73.18516  18.9416         36
 5.18   0.0441    291.1014    514.9318 -18.94     1802.302     1.625     1.502      5.482     73.12721  19.9104         37
 3.61   0.0054    304.6104    201.7310  31.11     14599.53     1.979     1.947      4.664     73.20171  17.6392         38
 3.50   0.0014    320.2000    905.3687  10.23     57736.91     2.242     2.205      4.828     73.14378  16.1464         39
 4.85   0.0412    295.4975   1327.5172 -13.90     1925.843     1.372     1.364      4.744     73.08579  19.8384         40
 6.62   0.0705    294.9007   1475.5369 -74.29       1126.6     1.173     0.974      6.176     73.12721  20.4206         41
 3.50   0.0003    352.8514    890.7111 -28.70     304338.8     2.568     2.504      5.034     73.11893  14.3416         42
 3.50   0.0003    352.8624   1345.7847 -23.23     293218.6     2.524     2.493      5.012     73.16033  14.3820         43
 8.97   0.0755    299.3999   1412.7705 -18.71     1051.475     0.759     0.449      4.552     73.12721  20.4955         44
 3.75   0.0080    323.5458    697.2219   5.39       9934.5     1.928     1.868      4.788     73.19344  18.0571         45
 7.68   0.0938    303.9609    563.0087   0.52      846.857     1.078     0.725      4.994     73.17689  20.7305         46
 5.80   0.0427    328.9993    595.2292 -20.45     1861.289     1.631     1.429      6.777     73.12721  19.8755         47
 9.34   0.0828    322.4987    641.4872  45.81     958.8966     0.503     0.497      3.017     73.08579  20.5956         48
 4.63   0.0119    347.9163    866.9841  39.24     6662.277     1.830     1.739      5.757     73.17689  18.4909         49
 7.46   0.1801    333.5166     93.5302  48.31      440.833     0.502     0.497      3.013     73.10236  21.4393         50
 4.55   0.0152    357.2899    431.7542 -86.08     5220.034     1.966     1.846      5.523     73.11893  18.7558         51
 6.03   0.0759    351.3906     54.6137  40.34     1046.002     1.061     0.951      4.707     73.13549  20.5012         52
 4.15   0.0079    369.6064    761.0257  39.72     10030.66     1.902     1.847      4.918     73.16861  18.0467         53
 5.27   0.0412    362.6790   1500.2339  23.19     1928.949     1.478     1.287      5.844     73.14378  19.8367         54
 4.23   0.0203    368.8589    442.7273   2.26     3908.645     1.676     1.588      4.762     73.12721  19.0699         55
 7.68   0.1288    361.9861   1033.5194 -89.92     616.8592     0.798     0.500      4.199     73.17689  21.0745         56
 3.50   0.0016    396.6423    231.3586   5.16     48766.64     2.248     2.188      4.857     73.16861  16.3297         57
 6.69   0.1081    374.2293    992.4621  -0.46     735.1066     0.965     0.724      4.139     73.16861  20.8841         58
 3.62   0.0114    398.5532   1461.1105  -0.57     6966.717     1.792     1.725      4.392     73.11893  18.4424         59
 3.57   0.0102    399.5710    354.4686  18.77         7819     1.831     1.777      4.411     73.16861  18.3171         60
 4.49   0.0478    395.4066   1088.5164 -42.15     1662.274     1.369     1.352      4.201     73.15205  19.9982         61
 3.50   0.0018    421.0752    433.2244  16.34     44595.05     2.212     2.168      4.806     73.16033  16.4268         62
 3.50   0.0037    417.0695    837.3176  35.07     21569.39     2.038     2.017      4.629     73.10236  17.2154         63
 7.26   0.0672    414.4749      1.5991 -88.23     910.4581     1.572     0.613      6.707     56.34393  20.6518         64
 4.05   0.0209    425.6546    926.3806  22.64     3796.685     1.672     1.608      4.528     73.18516  19.1015         65
 3.60   0.0050    439.4595    252.0048  10.36     15983.96     2.018     1.955      4.742     73.20998  17.5408         66
 7.26   0.0853    422.0591    159.4032  64.92      932.127     1.300     0.858      6.060     73.20998  20.6263         67
 3.50   0.0006    462.6514    807.5664  -4.64     138130.4     2.400     2.356      4.915     73.18516  15.1993         68
 5.74   0.0589    434.3322   1421.9010  11.76     1348.659     1.245     1.134      5.043     73.12721  20.2252         69
 7.77   0.1119    435.2876    151.0216   3.41     709.9611     0.735     0.683      4.408     73.16033  20.9219         70
 4.32   0.0150    451.8255     21.2910 -11.88     5300.342     1.771     1.671      5.129     73.13549  18.7392         71
 5.78   0.1139    441.5108    305.5070 -83.02     697.0405     0.924     0.898      4.105     73.10236  20.9419         72
 7.34   0.0820    446.8344    122.0894 -82.33     969.0653     1.148     0.731      5.608     73.12721  20.5841         73
 4.33   0.0140    459.2914     34.4861 -51.43     5659.112     1.743     1.673      4.779     73.08579  18.6681         74
 5.74   0.0189    469.2626    850.4149  22.43     4212.049     5.847     1.730     16.602     73.16033  18.9888         75
 9.44   0.0852    448.6069    883.8131  18.70     932.1747     0.775     0.444      4.649     73.11065  20.6263         76
 3.80   0.0453    465.1890    468.4067  53.61     1751.484     1.531     1.320      4.110     73.12721  19.9415         77
 6.35   0.1283    462.6235   1096.4197  11.00     619.4863     0.976     0.807      4.147     73.16033  21.0699         78
 4.43   0.0352    473.5376    734.7532  22.27     2254.441     1.505     1.391      4.534     73.13549  19.6674         79
 4.73   0.0501    472.9802    254.2992 -12.91     1584.379     1.391     1.194      3.912     73.11065  20.0504         80
 4.19   0.0273    479.3217    922.9229  32.84     2909.423     1.511     1.481      4.351     73.13549  19.3905         81
 5.93   0.0664    479.4613   1276.8489 -86.46     1195.895     1.230     1.100      5.315     73.13549  20.3558         82
 5.74   0.0478    514.6971   1309.9906   7.70     1661.081     1.319     1.171      5.798     73.12721  19.9990         83
 4.12   0.0642    485.6152   1070.7526  -8.55     1237.897     1.321     1.259      3.719     73.16861  20.3183         84
 6.54   0.0349    497.5776     83.0067  66.37     2274.997     1.905     1.613      9.190     73.16033  19.6575         85
 6.64   0.0404    496.9010   1187.0255  -1.97     1966.723     1.974     1.349      8.080     73.11065  19.8156         86
 4.90   0.0054    534.4559    518.5499  34.05     14754.24     3.647     3.086     12.619     73.16033  17.6277         87
 3.67   0.0068    513.8845   1302.1998   8.49     11751.68     2.027     1.866      4.742     73.16033  17.8748         88
 7.04   0.0646    505.7164    762.5055 -85.19     1228.814     1.245     1.035      6.094     73.09408  20.3263         89
 5.97   0.1216    503.5783    863.4941  14.81     653.4976     0.923     0.889      4.010     73.14378  21.0119         90
 5.48   0.0301    516.8466   1461.0226  24.80     2639.421     2.970     1.347      9.964     73.17689  19.4962         91
 5.84   0.1003    515.1458   1179.0188 -47.25     792.5468     1.176     1.000      5.556     73.18516  20.8024         92
 7.91   0.0895    511.1125    165.8792  45.76     886.6176     0.843     0.671      5.055     73.10236  20.6807         93
 7.31   0.1314    520.8629    641.8719 -43.04     604.0847     0.842     0.676      4.327     73.11065  21.0973         94
 3.50   0.0003    589.2521   1315.8784 -32.82     315387.4     2.545     2.493      5.002     73.11893  14.3029         95
 3.92   0.0499    541.6472    999.7842  41.53     1591.332     1.306     1.290      3.996     73.17689  20.0456         96
 4.43   0.0333    560.3848   1041.6217  45.42     2385.691     1.536     1.379      4.584     73.14378  19.6060         97
 3.77   0.0112    573.9904   1242.7697  14.96     7067.797     1.808     1.724      4.492     73.18516  18.4268         98
 5.79   0.0506    572.9567   1447.7887  47.55     1569.686     1.602     1.416      6.180     73.16861  20.0605         99
 6.09   0.0471    572.8408     45.9018  54.29     1684.315     1.694     1.258      7.087     73.10236  19.9839        100
 3.82   0.0083    583.6829    319.1039  10.22     9605.012     1.937     1.850      4.834     73.08579  18.0938        101
 3.67   0.0083    582.1736    144.8848 -10.85     9542.195     1.949     1.806      4.626     73.15205  18.1009        102
 3.50   0.0001    632.6119    483.1479 -14.17     562118.9     2.723     2.636      5.168     73.19344  13.6754        103
 8.96   0.1468    566.4742    139.4969 -37.18     540.8812     0.501     0.498      3.005     73.10236  21.2172        104
 6.43   0.0555    576.0765   1336.7830  30.80     1431.597     1.349     1.065      6.717     73.19344  20.1604        105
 5.27   0.0169    598.0474    782.5241 -49.02     4709.682     2.863     2.518     10.400     73.12721  18.8675        106
 6.31   0.0997    586.1059     75.9743   1.54     796.5102     1.004     0.858      4.697     73.13549  20.7970        107
 4.83   0.0707   1002.6642   1555.2805 -80.59     1122.269     1.320     1.123      4.311     73.11065  20.4248        108
 6.93   0.0824   1598.2859    654.0801  -4.44     797.4276     1.283     0.698      5.240     60.54079  20.7958        109
 7.14   0.1547   1596.1770    374.0029  36.32     472.3329     0.939     0.470      3.609     67.27833  21.3644        110
 4.11   0.0247   1543.0918    134.7388  -2.70     3220.193     1.670     1.574      4.378     73.13549  19.2803        111
 4.75   0.0798    929.7796   1322.2466  36.33     995.5419     1.163     1.114      3.826     73.17689  20.5548        112
 4.46   0.0574    923.3777    806.9763  76.86     1384.376     1.425     1.204      4.246     73.16861  20.1969        113
 6.36   0.0887    914.1400    838.4391  67.51     895.8298     1.071     0.954      4.718     73.16861  20.6694        114
 7.87   0.1802    913.7532   1001.0084   0.41     441.2202     0.689     0.431      3.579     73.19344  21.4384        115
 4.08   0.0128    901.8284    302.6319  32.47     6185.747     1.843     1.740      4.928     73.17689  18.5715        116
 3.50   0.0001    883.3814    183.6500 -19.82     798839.9     3.195     3.079      5.975     73.17689  13.2938        117
 6.89   0.0562    897.2708    538.1027  69.70     1414.002     1.425     1.164      7.594     73.12721  20.1739        118
 6.11   0.0203    880.5494    224.1360  88.64     3913.871     6.123     1.673     16.714     73.14378  19.0685        119
 3.50   0.0007    881.6226   1592.4487  65.69     111095.8     2.397     2.351      5.043     73.17689  15.4358        120
 8.03   0.0910    889.9066    325.8675 -44.75     872.1701     0.844     0.672      4.920     73.11893  20.6985        121
 4.70   0.1097    887.2526   1499.8967 -51.10      723.294     1.068     1.005      3.777     73.08579  20.9017        122
 7.97   0.1575    887.0178   1304.5103  88.51     504.4732     0.805     0.500      4.110     73.15205  21.2929        123
 6.94   0.0735    880.0314   1176.7563 -66.77     1081.494     1.170     1.034      5.628     73.19344  20.4649        124
 7.44   0.2467    878.8286    960.8246  45.21     322.0651     0.766     0.569      3.219     73.16033  21.7801        125
 4.81   0.0317    870.8043   1103.4138 -32.93      2502.34     1.741     1.609      5.481     73.13549  19.5541        126
 3.50   0.0003    860.6582   1224.3918   9.72     293123.5     2.607     2.563      5.192     73.20998  14.3824        127
 7.51   0.0849    869.3853    940.0309  28.13     936.6029     1.297     0.789      5.473     73.18516  20.6211        128
 6.42   0.1080    861.3013   1157.3337  43.91     735.3555     1.024     0.870      4.604     73.15205  20.8838        129
 6.09   0.1440    859.8855   1339.4011 -27.27     551.8636     1.096     0.578      3.554     73.15205  21.1954        130
 7.01   0.1000    846.0428   1205.9912 -53.00     794.9233     0.803     0.795      4.818     73.17689  20.7992        131
 5.36   0.0739    844.5964   1106.1683  25.00     1075.026     1.276     1.066      4.599     73.17689  20.4715        132
 6.93   0.1635    846.1494   1063.8723  45.80     485.7325     0.835     0.668      3.749     73.11065  21.3340        133
 6.16   0.0425    839.1501   1247.1755 -29.21     1871.828     1.482     1.308      7.024     73.19344  19.8693        134
 4.70   0.0571    838.0167    298.7638   5.94     1390.847     1.395     1.172      4.202     73.18516  20.1918        135
 3.94   0.0123    824.4010    654.3109  37.31     6445.204     1.893     1.787      4.845     73.15205  18.5269        136
 3.65   0.0139    804.4127   1378.5909  18.36     5703.467     1.785     1.710      4.404     73.12721  18.6597        137
 3.54   0.0047    799.9121    695.5764  88.77     16779.22     2.586     2.008      5.503     73.16033  17.4881        138
 4.21   0.0283    802.0409     41.0905 -21.87     2807.977     1.571     1.521      4.691     73.12721  19.4290        139
 5.47   0.0332    775.2255   1427.2784 -85.98     2393.688     2.215     1.593      7.563     73.16033  19.6023        140
 5.37   0.0534    768.0120    391.6290  15.91     1488.318     1.314     1.196      4.996     73.17689  20.1183        141
 4.25   0.0534    744.2063    556.2775 -23.97     1488.547     1.405     1.311      3.935     73.16861  20.1181        142
 6.64   0.1439    739.1788   1157.6746  21.00     552.2371     0.921     0.685      3.687     73.18516  21.1947        143
 6.69   0.1255    737.1107    649.3793 -22.30     632.7548     0.925     0.684      3.629     73.14378  21.0469        144
 3.50   0.0002    725.5227    404.7261 -14.90     385409.6     2.719     2.589      5.195     73.11893  14.0852        145
 3.50   0.0012    727.9932    848.3524  23.62      65967.8     2.318     2.276      4.956     73.19344  16.0017        146
 5.28   0.0806    728.8334   1178.1766  42.38     986.1508     1.189     1.040      4.338     73.16861  20.5651        147
 5.28   0.0529    717.2914    808.3470  55.73     1500.402     1.312     1.312      5.068     73.12721  20.1095        148
 4.44   0.0635    710.4481   1163.6825   4.86     1251.088     1.327     1.237      3.747     73.12721  20.3068        149
 5.89   0.0500    705.5657   1338.9106 -81.17     1589.748     1.391     1.282      5.587     73.12721  20.0467        150
 3.99   0.0334    704.2521    952.3856  34.75     2381.652     1.483     1.448      4.505     73.19344  19.6078        151
 8.02   0.0831    692.9650   1213.7378  65.54     955.9742     1.084     0.816      5.754     73.16033  20.5989        152
 4.46   0.0395    686.9780    644.0174  -9.45     2009.342     1.476     1.408      4.548     73.15205  19.7924        153
