#   1 KRON_RADIUS            Kron apertures in units of A or B                         
#   2 MAGERR_APER            RMS error vector for fixed aperture mag.                   [mag]
#   3 Y_IMAGE                Object position along y                                    [pixel]
#   4 X_IMAGE                Object position along x                                    [pixel]
#   5 THETA_IMAGE            Position angle (CCW/x)                                     [deg]
#   6 FLUX_APER              Flux vector within fixed circular aperture(s)              [count]
#   7 A_IMAGE                Profile RMS along major axis                               [pixel]
#   8 B_IMAGE                Profile RMS along minor axis                               [pixel]
#   9 FLUX_RADIUS            Fraction-of-light radii                                    [pixel]
#  10 FLUXERR_APER           RMS error vector for aperture flux(es)                     [count]
#  11 MAG_APER               Fixed aperture magnitude vector                            [mag]
#  12 NUMBER                 Running object number                                     
 4.78   0.0028     53.3380     63.9704   7.26     29704.28     4.718     4.475     15.306     77.63923  16.8680          1
 5.05   0.0169     16.6598    985.3684 -85.39     5003.779     3.609     2.086      8.545     77.64801  18.8018          2
 5.26   0.0212     18.1837     91.5303  74.80     3984.783     2.087     2.035      5.214     77.67435  19.0490          3
 3.61   0.0083     14.8774   1446.0594 -20.58     10161.76     2.377     2.257      4.138     77.59531  18.0326          4
 3.50   0.0018     59.9960   1078.7441 -84.48     48068.07     2.865     2.847      4.680     77.69191  16.3454          5
 7.62   0.0999     24.8117    367.3119  86.43      843.913     1.223     0.961      4.248     77.63923  20.7343          6
 3.50   0.0018     80.3040    537.8688 -68.48     45755.43     2.829     2.748      4.478     77.59531  16.3989          7
 3.50   0.0002    182.2390   1107.8192 -34.04     506747.4     4.633     4.354      9.300     77.65679  13.7880          8
 5.98   0.0517     75.3305    128.1510   7.55     1629.805     1.644     1.392      4.723     77.60409  20.0197          9
 3.50   0.0012    122.0009    789.4395 -44.95      67879.3     2.953     2.851      4.556     77.64801  15.9707         10
 5.56   0.0346     96.7984     56.3260 -28.63      2439.11     1.883     1.716      5.145     77.66557  19.5819         11
 3.50   0.0003    193.7160    318.2358 -55.00     291157.5     3.308     3.124      4.582     77.63045  14.3897         12
 3.50   0.0022    162.6019   1468.6160 -48.21     38402.78     2.794     2.676      4.477     77.60409  16.5891         13
 4.34   0.0096    170.5134    877.6075 -42.42     8762.929     2.344     2.308      4.571     77.62167  18.1934         14
 7.22   0.0582    172.0389    325.4923  78.58     1448.649     1.491     1.374      8.945     77.56894  20.1476         15
 4.95   0.0031    234.9792    403.9996 -38.88     27197.98     6.019     5.012     20.073     77.62167  16.9637         16
 9.28   0.1510    166.5024    104.4957 -45.07     557.8994     0.503     0.497      3.016     77.55135  21.1836         17
 7.74   0.0822    193.0751   1350.2625 -32.39      1024.64     1.045     0.868      6.271     77.58652  20.5236         18
 5.45   0.0484    206.8568    549.2773 -50.53     1741.599     1.743     1.512      3.822     77.61288  19.9476         19
 6.16   0.0231    210.9326    828.3876  -3.64     3649.876     3.061     2.052     10.830     77.67435  19.1443         20
 5.52   0.0528    212.4846   1306.3790 -88.11     1598.374     1.652     1.433      3.171     77.63923  20.0408         21
 8.04   0.0705    209.0900    350.2563 -24.90     1195.275     1.270     0.628      4.887     77.58652  20.3563         22
 3.50   0.0008    260.0246    997.7202 -34.57     103001.3     3.046     2.974      4.547     77.63045  15.5179         23
 6.92   0.0265    230.2005    562.1717 -22.47     3175.972     2.668     2.059     10.641     77.60409  19.2953         24
 4.98   0.0373    224.0775   1226.1844 -35.82     2260.897     1.672     1.608      4.609     77.64801  19.6643         25
 3.50   0.0010    266.0518     67.7467 -46.64     86937.17     2.992     2.877      4.455     77.63045  15.7020         26
 8.09   0.1457    223.1574    774.8520  44.65     578.8915     0.856     0.681      2.787     77.64801  21.1435         27
 5.69   0.0241    255.4994    613.4786 -30.24     3492.478     2.493     1.952      8.450     77.55135  19.1922         28
 7.83   0.0588    243.8100    113.3080 -31.34     1433.088     1.504     1.180      9.022     77.61288  20.1593         29
 3.50   0.0002    312.5709    439.6501 -47.03     355971.1     3.265     3.179      4.578     77.65679  14.1715         30
 3.62   0.0041    287.8654   1486.7047 -35.74     20334.08     2.644     2.558      4.246     77.60409  17.2794         31
 3.95   0.0197    282.1862   1522.5603 -26.03     4275.678     2.154     1.975      3.681     77.65679  18.9725         32
 3.50   0.0014    318.9296    905.7576 -48.54     59698.17     2.890     2.827      4.486     77.61288  16.1101         33
 3.80   0.0056    303.2811    201.9545 -59.39     15039.92     2.550     2.452      4.439     77.59531  17.6069         34
 6.35   0.0477    290.0413    515.4338 -57.14     1767.541     1.681     1.429      5.047     77.66557  19.9316         35
 5.51   0.0452    294.2129   1327.8457 -42.72     1867.446     1.647     1.557      3.850     77.63923  19.8719         36
 3.50   0.0003    351.7402   1346.0573 -34.38     303591.1     3.233     3.120      4.515     77.58652  14.3443         37
 3.50   0.0003    351.6763    891.0385 -39.67     314720.9     3.269     3.169      4.528     77.61288  14.3052         38
 3.80   0.0085    322.2903    697.4747 -27.00     9893.457     2.348     2.303      4.245     77.56894  18.0616         39
 8.09   0.1294    303.1684    563.1576  43.47     651.9407     0.770     0.571      3.631     77.66557  21.0145         40
 6.66   0.0480    327.6194    595.6862  25.14     1755.619     1.622     1.432      5.738     77.63045  19.9389         41
 5.28   0.0124    346.6566    867.2876 -12.12      6790.81     2.339     2.192      6.838     77.58652  18.4702         42
 4.97   0.0153    355.9642    432.0585  76.87     5523.206     2.313     2.190      5.732     77.63923  18.6945         43
 4.37   0.0082    368.3321    761.2585 -39.51      10219.6     2.443     2.297      4.580     77.61288  18.0264         44
 7.07   0.0998    350.1291     54.5522 -73.90     844.0771     1.086     0.979      2.983     77.60409  20.7340         45
 5.13   0.0217    367.5964    442.9654 -77.46     3877.334     2.076     1.963      5.138     77.63923  19.0787         46
 5.15   0.0516    361.5371   1500.7213 -13.45      1632.78     1.641     1.434      3.237     77.57773  20.0177         47
 3.50   0.0017    395.3853    231.6062 -54.28     50326.19     2.870     2.821      4.443     77.58652  16.2955         48
 5.78   0.4179    381.0594      1.6276  89.85     155.6705     1.883     0.627      4.686     59.90051  22.5695         49
 8.45   0.1540    372.9990    992.5058 -58.15      547.179     0.805     0.311      2.877     77.61288  21.2047         50
 4.20   0.0102    398.2848    354.7194   9.69     8220.206     2.312     2.281      4.270     77.57773  18.2628         51
 3.77   0.0124    397.4120   1461.3782 -17.33     6815.612     2.313     2.103      4.137     77.61288  18.4662         52
 3.50   0.0018    419.8354    433.5804 -55.32     46206.85     2.778     2.756      4.382     77.64801  16.3882         53
 4.73   0.0519    394.0577   1088.8986 -43.40     1624.072     1.641     1.559      3.345     77.56894  20.0235         54
 3.60   0.0038    415.8977    837.4975 -45.88     22200.83     2.641     2.542      4.415     77.55135  17.1841         55
 5.78   0.1312    412.4688      1.8868  89.97     504.0565     2.854     0.847      6.932     60.90522  21.2938         56
 4.27   0.0208    424.4154    926.6027 -63.70     4051.081     2.056     1.924      4.333     77.61288  19.0311         57
 3.65   0.0051    438.1782    252.3248 -29.13     16427.87     2.594     2.496      4.370     77.64801  17.5110         58
 3.50   0.0006    461.3275    807.6848 -44.56     142835.4     3.069     2.970      4.424     77.56894  15.1629         59
 8.00   0.0931    422.2901    159.2986  30.10     904.3136     1.140     0.455      4.196     77.55135  20.6592         60
 5.77   0.0743    433.3169   1422.0193 -85.55     1134.569     1.350     1.257      3.115     77.63923  20.4129         61
 4.69   0.0158    450.5074     21.3661 -60.70      5324.52     2.156     2.078      4.659     77.58652  18.7343         62
 4.73   0.0145    457.9618     34.5772 -31.46     5830.609     2.314     2.154      4.500     77.64801  18.6357         63
 5.96   0.0198    467.9308    850.5899  22.78     4253.473     5.574     2.051     19.003     77.67435  18.9781         64
 8.38   0.1593    440.3893    305.7971 -18.28     529.0197     0.759     0.448      2.841     77.60409  21.2413         65
 8.29   0.0946    445.1664    122.0109  36.33     891.3856     0.952     0.471      4.421     77.64801  20.6748         66
 5.08   0.0450    464.0114    468.8770  50.79     1876.283     1.620     1.511      4.285     77.66557  19.8668         67
 4.72   0.0361    472.3120    735.0850  14.70     2334.952     1.720     1.617      4.293     77.57773  19.6293         68
 6.27   0.0537    471.5685    254.4642 -26.87     1570.247     1.469     1.457      4.096     77.63923  20.0601         69
 4.34   0.0292    478.2522    923.1936 -23.90     2887.979     1.983     1.718      3.534     77.69191  19.3985         70
 6.82   0.0859    478.2759   1277.3939 -85.19     981.8432     1.353     0.964      3.454     77.66557  20.5699         71
 5.43   0.0712    484.1250   1070.6490  85.23     1183.513     1.448     1.255      3.176     77.57773  20.3671         72
 7.12   0.0395    495.7857     82.7141  63.17     2136.263     1.961     1.610      8.721     77.63045  19.7259         73
 5.00   0.0056    533.2349    518.9296  37.45     14988.35     3.910     3.549     13.500     77.63923  17.6106         74
 3.82   0.0067    512.7750   1302.9084   1.39     12546.47     3.031     2.337      6.358     77.61288  17.8037         75
 7.10   0.0411    496.0874   1186.2869   0.20     2049.667     2.308     1.158      6.898     77.56894  19.7708         76
 5.61   0.0351    515.7681   1461.5475  21.97     2402.949     3.031     1.566      9.554     77.65679  19.5981         77
 8.29   0.0676    504.0765    762.8454  -9.36     1247.278     1.182     0.733      6.495     77.60409  20.3101         78
 3.50   0.0003    588.1974   1315.9708 -40.82       326402     3.203     3.090      4.476     77.61288  14.2656         79
 4.80   0.0508    540.5020   1000.0099 -47.10     1658.283     1.801     1.414      3.866     77.59531  20.0009         80
 4.83   0.0367    559.0993   1041.6805 -71.25     2295.611     1.733     1.601      3.961     77.54256  19.6478         81
 3.50   0.0002    631.4110    483.3898 -46.14     403197.1     3.403     3.274      5.319     77.59531  14.0362         82
 4.00   0.0114    572.9424   1242.8494 -20.59     7423.244     2.284     2.162      4.484     77.62167  18.3735         83
 4.04   0.0087    580.9507    144.9609 -57.42     9698.818     2.396     2.287      4.222     77.63923  18.0832         84
 3.97   0.0087    582.4050    319.3372 -28.39     9736.255     2.436     2.322      4.109     77.68313  18.0790         85
 6.40   0.0552    571.2385     45.9847  61.01       1527.7     1.744     1.452      6.176     77.65679  20.0899         86
 6.80   0.0548    571.9903   1447.2919  44.91      1537.74     1.566     1.129      5.433     77.61288  20.0828         87
 6.99   0.0619    575.0917   1336.9126 -44.42     1360.741     1.326     1.194      7.113     77.56014  20.2156         88
 5.29   0.0174    596.9055    782.7564 -63.14     4844.749     2.951     2.704      9.787     77.56014  18.8368         89
 8.03   0.1249    584.8823     75.8871 -43.97     674.4385     0.844     0.671      4.353     77.58652  20.9776         90
 5.43   0.0712   1001.9044   1555.4856 -30.83     1182.322     1.471     1.017      3.334     77.54256  20.3682         91
 3.88   0.0047   1552.8385    682.2031 -26.15     17802.65     4.350     3.862     11.096     77.63045  17.4238         92
 6.08   0.0661    928.8491   1322.2067 -16.26     1276.977     1.255     0.950      4.101     77.66557  20.2845         93
 7.22   0.0833    912.9645    838.5374 -37.14     1012.424     0.996     0.901      4.246     77.63045  20.5366         94
 4.52   0.0129    900.7401    302.9729 -24.72     6525.003     2.259     2.178      3.857     77.65679  18.5135         95
 3.50   0.0003    882.3170    184.0921 -39.05     315978.1     3.580     3.395      7.065     77.58652  14.3009         96
 7.18   0.0591    896.1107    538.3329  76.54     1426.543     1.894     0.972      5.439     77.59531  20.1643         97
 3.50   0.0007    880.6418   1592.4735 -64.65     114637.5     2.972     2.834      4.310     77.61288  15.4017         98
 6.30   0.0206    879.7103    224.5573  88.80     4100.725     5.479     2.003     15.591     77.60409  19.0178         99
 6.90   0.0920    886.5869   1500.2471 -57.75     916.8973     1.072     0.828      3.821     77.63923  20.6442        100
 8.18   0.0635    878.1592   1177.1304  12.63     1327.249     0.971     0.715      5.710     77.63045  20.2426        101
 3.50   0.0003    859.6341   1224.5560 -40.94     294374.9     3.216     3.087      4.478     77.66557  14.3777        102
 5.17   0.0284    869.9198   1103.7911 -18.08     2969.871     1.878     1.655      6.375     77.63045  19.3682        103
 8.97   0.0741    868.5251    939.5373   0.70     1136.628     1.099     0.499      5.045     77.58652  20.4110        104
 7.37   0.0611    843.6827   1106.1793   4.73     1380.919     1.256     0.948      5.405     77.64801  20.1996        105
 6.00   0.0376    838.0731   1246.9420 -58.17     2243.914     1.653     1.549      8.334     77.59531  19.6725        106
 6.15   0.0717    836.6302    298.9912 -69.67     1176.764     1.487     1.313      3.178     77.65679  20.3733        107
 3.83   0.0126    823.3171    654.5357 -42.98     6681.767     2.272     2.152      4.289     77.58652  18.4878        108
 3.85   0.0138    803.3832   1378.7355 -35.93     6112.159     2.198     2.087      4.204     77.64801  18.5845        109
 3.60   0.0048    798.8245    695.8134 -84.53      17520.5     2.986     2.443      5.177     77.62167  17.4411        110
 5.31   0.0296    800.8677     41.3187 -50.43     2843.213     1.945     1.710      3.602     77.58652  19.4155        111
 6.17   0.0358    774.5449   1427.3381 -67.17     2357.177     2.223     1.631      5.734     77.60409  19.6190        112
 6.41   0.0665    766.9319    392.2231  12.80     1268.955     1.476     1.261      3.129     77.65679  20.2914        113
 5.39   0.0548    742.9041    556.4700  -5.58     1536.622     1.527     1.446      4.714     77.57773  20.0836        114
 3.50   0.0002    724.3960    405.1015 -45.58     400107.3     3.360     3.212      4.499     77.61288  14.0446        115
 3.50   0.0012    726.8812    848.5818 -64.13     68810.98     2.921     2.853      4.490     77.64801  15.9559        116
 7.42   0.1046    736.1302    650.1016 -44.73     805.3846     0.857     0.673      4.458     77.59531  20.7850        117
 6.59   0.0665    727.7564   1178.0735 -39.79     1267.557     1.194     1.092      5.229     77.59531  20.2926        118
 5.57   0.0611    716.0161    808.5636 -21.13     1379.691     1.426     1.254      4.054     77.65679  20.2005        119
 5.87   0.0509    709.0939   1164.1671 -18.29      1655.55     1.459     1.161      6.198     77.58652  20.0026        120
 6.51   0.0521    704.4888   1339.2040   6.79     1617.719     1.435     1.408      4.947     77.61288  20.0277        121
 4.40   0.0318    703.0298    952.6744  10.63     2651.577     1.770     1.638      4.264     77.61288  19.4912        122
 4.83   0.0426    685.8143    644.3981 -79.22     1979.641     1.817     1.706      3.976     77.61288  19.8085        123
 6.47   0.0461    681.4931    543.7843 -62.12     1829.161     2.072     1.479      6.818     77.62167  19.8944        124
 9.33   0.0431    682.4871    473.8106  59.39     1956.932     1.089     0.467      5.745     77.63045  19.8211        125
 3.50   0.0013    648.6783   1464.4487 -41.80      66875.4     2.887     2.795      4.293     77.60409  15.9868        126
 9.36   0.1469   1545.6748    862.6478 -43.91      573.524     0.582     0.330      3.273     77.59531  21.1536        127
 3.96   0.0080    639.9781    536.9599 -78.13     10482.52     2.423     2.363      4.369     77.64801  17.9988        128
 5.87   0.0885    623.6530   1581.1055 -48.29     952.4316     1.290     1.055      3.718     77.58652  20.6029        129
 6.59   0.0750    605.7301    586.2886  53.18     1123.268     1.298     1.107      3.651     77.57773  20.4238        130
 3.50   0.0014   1558.1497    487.7714 -65.64     59861.24     2.822     2.787      4.290     77.65679  16.1071        131
 3.62   0.0102   1514.9722    392.6647 -49.60     8267.791     2.307     2.209      4.338     77.63045  18.2565        132
 6.20   0.0639   1565.8198    784.7139  82.32     1319.104     1.511     1.170      5.551     77.63045  20.2493        133
 6.99   0.0954   1561.6879    861.9500 -18.79     882.9965     1.266     0.890      2.803     77.59531  20.6851        134
 5.73   0.0645   1584.9807   1108.8787  -7.34     1307.047     1.310     1.186      4.056     77.64801  20.2593        135
 4.14   0.0226   1541.9059    134.9537  -7.92     3719.384     1.981     1.925      4.438     77.56014  19.1238        136
 4.80   0.0487   1570.4589     92.6446 -52.34     1729.238     1.545     1.449      3.951     77.61288  19.9554        137
 3.50   0.0014   1563.8138    304.2336 -46.33     60303.46     2.857     2.773      4.316     77.63923  16.0991        138
 4.75   0.0354   1566.7946     21.9680  29.55     2379.314     1.684     1.534      4.623     77.64801  19.6089        139
 4.52   0.0356   1542.7158    654.7670 -44.81     2368.649     1.893     1.777      3.965     77.63045  19.6137        140
 3.50   0.0026   1507.3011    269.3810 -55.62     32584.17     2.722     2.651      4.165     77.59531  16.7675        141
 8.26   0.0591    986.8891    454.3099 -80.67     1424.513     1.235     1.042      7.409     77.55135  20.1658        142
 8.81   0.1029   1504.1671    723.8372 -45.32     819.5836     0.765     0.576      3.657     77.65679  20.7660        143
 8.52   0.0835    981.8389    798.0037 -35.79     1009.537     0.944     0.470      4.053     77.63045  20.5397        144
 3.51   0.0055    930.0129   1178.5024 -27.21     15358.58     2.528     2.418      4.329     77.59531  17.5841        145
 3.50   0.0043   1026.0925   1380.0082 -48.94     19797.39     2.599     2.493      4.479     77.61288  17.3085        146
 5.33   0.0413    939.5755   1067.4001  81.81     2042.993     1.566     1.422      5.096     77.61288  19.7743        147
 7.12   0.0497   1030.3782    302.9115  55.48     1695.545     1.750     1.315      5.755     77.62167  19.9767        148
 3.50   0.0025   1080.1975    512.2936 -58.18     33693.29     2.732     2.675      4.210     77.60409  16.7311        149
 3.50   0.0002   1023.8034     50.3254 -45.55     475231.5     3.396     3.242      4.384     77.67435  13.8577        150
 6.86   0.0802   1096.0823   1526.8024  -9.08     1051.474     1.151     0.737      4.050     77.63045  20.4955        151
 4.33   0.0338   1439.9349    619.1986 -36.11     2493.864     1.821     1.693      3.567     77.68313  19.5578        152
 4.69   0.0262   1089.6460    642.5017 -53.40     3219.134     1.875     1.753      3.900     77.55135  19.2807        153
