#   1 KRON_RADIUS            Kron apertures in units of A or B                         
#   2 Y_IMAGE                Object position along y                                    [pixel]
#   3 MAG_BEST               Best of MAG_AUTO and MAG_ISOCOR                            [mag]
#   4 FLUX_BEST              Best of FLUX_AUTO and FLUX_ISOCOR                          [count]
#   5 X_IMAGE                Object position along x                                    [pixel]
#   6 THETA_IMAGE            Position angle (CCW/x)                                     [deg]
#   7 A_IMAGE                Profile RMS along major axis                               [pixel]
#   8 B_IMAGE                Profile RMS along minor axis                               [pixel]
#   9 MAGERR_BEST            RMS error for MAG_BEST                                     [mag]
#  10 NUMBER                 Running object number                                     
#  11 FLUXERR_BEST           RMS error for BEST flux                                    [count]
 4.06     54.7854  16.5301     40548.01     63.6141  10.86     5.365     4.865   0.0054          1     201.5104
 4.05     18.2135  18.8025     5000.509    984.9620 -89.85     4.237     2.095   0.0254          2     116.8546
 4.10     19.4714  19.2109     3432.616     91.2174 -50.22     1.811     1.786   0.0225          3      71.2709
 3.50     16.2576  18.1516     9106.975   1445.6405  10.92     2.069     1.951   0.0081          4     68.27317
 5.88      5.8206  22.2328     212.2614    145.2245  -0.38     1.171     0.700   0.2624          5     51.27777
 3.50     61.4063  16.4768      42587.7   1078.3906  60.70     2.429     2.331   0.0020          6     80.15064
 7.15     11.4045  23.0242     102.4009   1183.2152  19.09     0.760     0.448   0.4220          7     39.79474
 6.20     19.1504  21.5368     402.9739    384.5094   6.20     1.294     0.940   0.1774          8     65.82211
 6.18     26.2150  21.2225     538.2761    366.8643  22.57     1.520     1.277   0.1680          9     83.25911
 8.14     25.4828  23.7919     50.49182    382.6798  34.64     1.089     0.824   1.5948         10     74.14753
 6.45     36.5190  21.5551     396.2419   1110.6578 -49.38     1.297     0.966   0.1913         11     69.78813
 6.19     34.8937  21.5036     415.4778    326.7797  -6.17     1.759     1.173   0.2250         12     86.08225
 3.50     81.5333  16.5116     41244.73    537.4374  -8.76     2.426     2.341   0.0021         13     80.15064
 6.56     40.7101  22.8753      117.455   1170.5583  40.85     1.270     0.507   0.4741         14     51.27777
 5.84     40.0144  25.8076     7.888062   1521.2733  85.98     0.741     0.661   5.6317         15     40.90551
 5.97     44.3194  21.6012      379.786    915.1635 -57.45     1.037     0.830   0.1555         16     54.38829
 8.83     45.6943  23.7292     53.49487    440.3448  43.14     0.570     0.337   0.7688         17     37.87114
 3.86     76.6940  20.1585     1434.115    128.1458 -36.54     1.719     1.565   0.0465         18     61.35826
 6.39     91.3040  20.3414     1211.783    376.7011  59.93     2.277     1.590   0.1058         19     117.9997
 5.62     84.3886  21.1197     591.7065    421.1944 -71.75     1.543     1.097   0.1300         20     70.85042
 3.50    123.3941  16.0733     61757.43    788.9817   1.93     2.491     2.407   0.0015         21     82.53824
 4.29     98.1545  19.8313     1938.646     56.0174  -2.94     1.876     1.626   0.0404         22     72.10451
 6.22     99.8760  20.4548     1091.679    452.8296  11.32     1.469     1.252   0.0810         23     81.44497
 5.77     92.9685  22.0345     254.7975    495.7600  -1.84     0.890     0.757   0.1949         24     45.73375
 7.44    118.7651  23.7895     50.60693    990.2153  56.24     0.770     0.712   1.1433         25     53.27821
 7.94    118.3204  22.4860     168.1111    415.3350 -44.33     0.572     0.336   0.2233         26     34.57146
 3.50    163.8909  16.7149     34202.21   1468.2533 -12.36     2.297     2.242   0.0024         27      76.5272
 8.54    132.4837  21.2383     530.4708    418.0073   0.90     0.791     0.500   0.1050         28     51.27777
 3.62    171.7659  18.3179     7813.738    877.2239 -65.04     2.104     2.045   0.0102         29     73.13316
 5.02    152.7571  23.2931     79.93713   1280.5729  70.56     0.724     0.458   0.3713         30     27.33114
 3.53    167.9653  21.5475     399.0198    104.0224 -78.63     1.477     1.352   0.1314         31     48.27642
 6.26    166.7164  21.3720     469.0317   1445.8735  25.87     1.481     1.385   0.2009         32     86.77369
 6.54    161.5322  23.7853     50.80115    634.5322  45.00     0.509     0.489   0.6610         33     30.92166
 6.44    170.4764  21.5827     386.3027   1368.4977   1.76     0.962     0.894   0.1655         34     58.87308
 6.49    170.4273  22.3839      184.686    651.2307  19.56     0.769     0.448   0.2108         35     35.84446
 7.24    181.4357  20.9818     671.8506    575.3188  32.57     1.271     0.859   0.1185         36     73.33715
 5.24    194.1731  20.4053      1142.57   1350.5505 -52.42     1.469     1.346   0.0679         37     71.48021
 6.58    188.1913  21.3935     459.8342   1354.9642  38.80     1.031     0.844   0.1408         38     59.62951
 4.47    212.4319  18.8625     4731.484    827.3854 -12.54     4.254     2.183   0.0302         39     131.7576
 4.70    208.1951  20.0301      1614.28    548.9749 -54.46     1.677     1.562   0.0499         40     74.14753
 3.50    213.7668  20.0706       1555.1   1306.0121  -5.55     1.672     1.540   0.0378         41      54.1129
 5.56    232.0003  19.0514     3975.878    561.9341 -29.94     3.527     3.152   0.0490         42     179.5554
 3.50    267.4318  15.8073     78898.87     67.5887   4.05     2.519     2.455   0.0012         43     85.03456
 5.22    212.3623  20.9416     697.2253    684.2392 -21.57     1.588     1.414   0.1183         44     75.93927
 3.50    261.3217  15.3866     116246.3    997.3779 -21.97     2.507     2.488   0.0008         45     85.21007
 3.57    225.6275  19.9835     1684.965   1226.0277  56.39     1.639     1.513   0.0354         46     54.93492
 4.82    224.2253  21.4400     440.5349    774.7047 -64.76     1.485     1.273   0.1583         47     64.21365
 5.37    245.7519  20.2952       1264.5    112.9574 -84.19     2.268     1.820   0.0904         48      105.287
 4.73    256.7946  19.1855     3514.008    612.8154 -30.55     2.748     2.239   0.0352         49     113.7449
 6.37    240.4774  21.4089     453.3567    838.2289  -1.00     1.566     1.476   0.2241         50     93.56676
 6.42    253.0003  19.4431     2771.802   1372.7172 -71.85     1.388     1.020   0.0287         51     73.26839
 7.14    251.7136  21.3122     495.5855    107.6560 -47.45     1.285     0.961   0.1290         52     58.85526
 3.50    289.1075  17.4346     17626.56   1486.3608   1.53     2.188     2.127   0.0045         53     73.54058
 7.65    254.4976  22.5480     158.7767   1352.0000  31.85     0.805     0.311   0.2132         54     31.16784
 3.60    283.4612  19.1992      3469.91   1522.2333  52.35     1.853     1.816   0.0200         55     63.98056
 0.00    266.9816  99.0000    -36.11902    123.0000  90.00     0.858     0.289  99.0000         56     39.79474
 6.63    272.2898  21.8908      290.844   1273.7919   3.53     1.216     0.928   0.2557         57     68.49165
 3.50    304.5837  17.7252      13486.7    201.6434   9.84     2.209     2.162   0.0059         58     73.74345
 5.28    294.7334  20.7860      804.636   1475.5226 -23.87     1.490     1.372   0.0987         59     73.09332
 4.40    303.5009  20.9797     673.1869    563.4193 -19.54     1.662     1.501   0.1087         60     67.39219
 3.50    323.5641  18.1878     8808.221    697.2144  48.95     2.098     2.084   0.0087         61     70.85042
 8.21    294.2909  23.3863     73.36255    247.3220 -43.16     0.553     0.344   0.5118         62     34.57146
 8.21    309.9417  21.3469     479.9932     85.7309 -48.00     1.182     0.645   0.1564         63     69.14293
 5.55    322.5255  20.6855     882.6404    641.3193  77.65     1.952     1.534   0.1151         64     93.56676
 5.15    328.8730  19.8041      1987.65    595.4155 -35.20     1.939     1.713   0.0500         65      91.4675
 5.86    331.2283  22.0776     244.8788   1545.7670  43.51     1.148     0.833   0.2472         66     55.74481
 6.09    333.6950  22.2450     209.8977     93.5791  55.69     0.971     0.940   0.2953         67      57.0691
 5.25    351.3244  20.4223     1124.854     54.6837  61.37     1.405     1.282   0.0659         68     68.27317
 3.68    369.6347  18.1372      9228.52    760.9844  20.92     2.099     2.041   0.0087         69     73.74345
 3.50    396.6434  16.4088     45339.18    231.3520 -26.42     2.431     2.344   0.0019         70     80.52258
 4.58    362.7214  20.0755     1548.158   1500.1469   1.09     1.885     1.588   0.0538         71     76.72218
 0.00    362.1609  99.0000     -41.4917   1033.3594 -58.97     1.241     0.995  99.0000         72     70.63924
 6.42    376.5254  18.8900     4613.263    753.3805  48.83     1.997     1.131   0.0225         73     95.73367
 5.64    381.7092  21.2956     503.2319      1.5745 -88.36     2.138     0.633   0.1138         74      52.7144
 5.73    375.3517  21.6179     373.9617   1083.9893 -64.08     1.453     1.092   0.2033         75     70.00188
 6.92    371.3849  23.0319     101.6813     72.0737  -4.98     1.328     0.618   0.6395         76     59.87953
 7.68    370.4340  22.1628     226.4023    209.7979 -20.41     0.757     0.448   0.2098         77     43.72983
 3.50    399.6176  18.4702     6790.681    354.4628  17.25     2.015     1.927   0.0107         78     66.94735
 3.50    398.5452  18.6071     5986.461   1461.0853  -1.85     1.953     1.880   0.0116         79     64.21365
 5.48    384.9274  21.8790     294.0306     67.2584  84.64     1.574     0.663   0.1988         80     53.83611
 5.96    376.7703  22.8275     122.7391     87.0265   1.14     0.694     0.420   0.2693         81     30.43467
 6.77    382.1244  21.3611     473.7819    125.8206 -25.56     0.976     0.759   0.1320         82     57.59029
 4.02    395.3357  20.2600     1306.206   1088.6277  16.79     1.645     1.542   0.0514         83     61.84332
 7.53    397.2801  20.8196     780.0895    626.6414 -84.29     1.368     1.024   0.1203         84     86.42866
 6.06    413.7102  20.4983     1048.763      1.9376  88.84     2.794     0.912   0.0794         85     76.72218
 5.80    390.9907  23.1778     88.89404   1196.0000  90.00     0.849     0.289   0.3203         86     26.21511
 7.06    405.4550  21.3671     471.1464    526.5231  81.85     1.415     0.997   0.1877         87     81.44497
 3.50    462.6592  15.2730     129057.1    807.5481 -14.75     2.549     2.471   0.0007         88     85.73444
 3.50    439.4121  17.6256     14782.45    252.0300   6.63     2.198     2.152   0.0054         89     73.94577
 6.39    408.1780  21.6394     366.6552    281.9645  29.19     1.164     0.805   0.1751         90      59.1263
 5.73    422.2335  20.5829     970.1426    159.3221  51.63     1.823     1.388   0.0994         91      88.8157
 6.58    427.0642  21.6108     376.4197    299.6302  84.40     1.385     0.613   0.1691         92     58.61877
 7.34    419.4577  22.6821     140.3265   1204.3013  -8.30     1.015     0.481   0.3900         93     50.39614
 7.02    428.1476  21.6054     378.2919   1179.8237  43.93     1.268     1.091   0.2301         94     80.15064
 4.39    434.3699  20.5780     974.5681   1421.9888 -10.82     1.560     1.399   0.0641         95     57.52779
 8.46    424.2213  22.7712     129.2708    133.4180  71.45     0.751     0.455   0.4003         96     47.65348
 5.96    421.4902  23.3067     78.94092   1580.9540   2.68     0.778     0.499   0.4988         97     36.25886
 8.25    421.6680  21.8185     310.8822    136.3273  45.21     0.574     0.335   0.1238         98     35.42521
 7.29    425.5192  22.5191     163.0682   1063.4724  46.62     0.503     0.496   0.2415         99     36.25886
 8.39    431.2661  20.9353     701.2378    718.8472  67.24     1.078     0.508   0.0931        100     60.12851
 6.61    428.4362  19.0784     3878.247    432.8666  -1.42     3.052     0.580   0.0245        101     87.47547
 4.77    469.1457  18.3932     7289.627    850.1890  21.91     7.491     2.172   0.0278        102     186.7339
 4.02    451.8686  18.8936     4598.005     21.3246   5.41     2.100     1.955   0.0185        103     78.26448
 5.98    435.1284  21.1023     601.2687    151.0912  52.00     1.240     1.134   0.1245        104     68.92652
 5.40    441.5390  21.2320     533.5929    305.5747 -51.09     1.441     1.138   0.1367        105     67.17014
 5.43    446.8850  20.8685     745.7936    122.1028  85.16     1.505     1.355   0.1091        106     74.94915
 0.00    435.6659  99.0000    -22.66406    353.6778 -45.54     0.573     0.336  99.0000        107     27.87241
 3.92    459.3049  18.7816     5097.674     34.4913 -43.25     1.983     1.870   0.0156        108     73.13316
 8.32    445.0175  21.6250     371.5203    654.3727 -25.27     1.075     0.452   0.1637        109     56.01217
 3.68    465.1302  19.9447     1746.281    468.4329  46.31     1.735     1.537   0.0365        110     58.61877
 5.36    454.5111  22.9107     113.6893   1533.5862   2.60     0.992     0.775   0.4306        111     45.07568
 3.85    462.4621  22.4375     175.7998   1096.4276  13.24     1.424     1.022   0.2805        112      45.4059
 6.23    454.6659  24.0619     39.37781   1224.3201  45.65     0.572     0.336   0.7687        113     27.87241
 4.18    473.5636  19.6653     2258.884    734.7416 -32.28     1.675     1.672   0.0328        114     68.27317
 7.77    463.4885  21.0880     609.2372    723.9955 -62.96     1.225     0.497   0.1076        115     60.37647
 4.28    473.0175  20.1870     1397.071    254.3179   2.68     1.614     1.461   0.0497        116     63.98056
 3.50    479.3950  19.5442     2525.226    922.8692  50.14     1.739     1.690   0.0249        117     57.84912
 4.18    479.2153  20.7050     866.9487   1276.8652  88.29     1.667     1.470   0.0796        118     63.51184
 6.15    468.1647  22.0771     244.9929   1198.3262 -25.50     0.748     0.647   0.1845        119     41.62955
 4.99    489.4695  21.1333     584.3843    839.3799 -85.63     2.556     0.978   0.1433        120     77.11064
 5.00    497.6219  19.8344     1932.983     82.7204 -14.39     2.586     2.443   0.0685        121     121.8614
 4.48    497.1443  19.7945     2005.432   1186.5587 -19.24     2.871     2.197   0.0589        122     108.7766
 5.27    477.6234  22.8242     123.1151   1167.6362 -32.52     1.409     0.553   0.3976        123     45.07568
 3.50    485.5691  20.5222     1025.947   1070.7618 -13.29     1.529     1.376   0.0524        124     49.49881
 3.50    480.5318  22.1629     226.3715    682.5682 -19.27     0.922     0.768   0.1412        125     29.43654
 4.19    532.4379  17.5775     15451.93    518.7012  17.05     4.773     2.905   0.0085        126     120.7875
 5.92    483.2268  23.8188      49.2594   1309.2524  17.63     0.842     0.349   0.6710        127     30.43467
 7.04    490.9982  22.4249     177.8505    424.4974  57.39     0.783     0.319   0.2058        128     33.69609
 4.88    505.6880  20.3003     1258.612    762.6530  29.68     1.866     1.696   0.0729        129     84.50584
 6.07    499.2487  21.8152     311.8413    366.5008  48.61     1.260     0.822   0.2085        130     59.87953
 3.50    503.6251  21.4525     435.5229    863.6788  17.99     1.349     1.193   0.1056        131     42.34122
 4.09    516.8408  19.3308     3073.777   1461.1042  25.64     3.620     1.834   0.0362        132     102.4098
 6.42    511.4173  20.4939     1053.056    164.7969  15.76     2.143     1.304   0.1078        133     104.5751
 3.50    504.0078  26.6356     3.679321    442.7247 -86.66     0.742     0.697   7.0328        134     23.82674
 3.88    515.1553  20.9765     675.1418   1179.1432 -11.58     1.351     1.290   0.0801        135     49.79971
 3.70    520.8367  21.3792     465.9417    642.2778   1.63     1.390     1.164   0.1066        136     45.73375
 7.78    522.2990  22.0094     260.7573    854.1040 -68.91     0.955     0.691   0.2535        137     60.86934
 6.15    519.8758  24.1655     35.79407   1519.3197  20.54     0.920     0.674   1.4363        138     47.33893
 3.50    541.7062  20.2623     1303.426    999.6561 -28.16     1.600     1.510   0.0432        139      51.8572
 5.95    537.3939  22.1304     233.2548    404.2004  25.92     1.629     0.795   0.3065        140     65.82211
 3.50    560.4191  19.8600     1887.964   1041.6516  18.47     1.867     1.613   0.0340        141      59.1263
 4.94    572.7739  20.0744     1549.732     45.8521  54.85     2.131     1.762   0.0653        142     93.24687
 3.50    573.2246  20.0511     1583.236   1448.4399  29.55     2.441     1.841   0.0495        143     72.10451
 3.56    583.6990  18.2295     8476.549    319.1047  10.28     2.100     2.028   0.0091        144     70.85042
 3.50    582.1724  18.2117     8616.416    144.8971   4.15     2.088     1.978   0.0088        145     69.57373
 6.41    557.7811  22.4746     169.8822    778.6027  72.66     0.764     0.454   0.2291        146     35.84446
 4.04    598.1440  18.5430     6350.195    782.6210 -52.42     3.563     3.261   0.0228        147     133.2236
 5.76    566.2109  21.4407      440.257    139.6721 -56.27     1.261     1.043   0.1578        148     63.98056
 6.78    568.5834  24.6419     23.08032    633.2251 -19.07     0.738     0.455   1.7633        149     37.47458
 6.26    578.0512  21.7428     333.3308   1001.7804 -28.13     1.682     0.817   0.2301        150     70.63924
 5.30    586.1544  21.6038     378.8784     75.9674  -8.76     1.328     1.229   0.1880        151     65.59474
 3.95   1002.9375  19.5149     2594.383    542.3767  41.74     1.957     1.741   0.0295        152     70.42743
 4.10   1598.2117  21.1162      593.646    654.3484  -3.12     1.918     1.218   0.0985        153     53.83611
 3.70   1595.8204  21.8514     301.6063    373.5580  36.47     1.480     1.018   0.1623        154     45.07568
 6.34   1594.4935  23.9833     42.33447   1384.2332 -29.70     1.436     0.913   1.7903        155     69.78813
 4.80   1586.2162  20.7042     867.5823   1108.5291  10.82     1.709     1.419   0.0908        156     72.51772
 4.54   1567.9301  19.8269     1946.457     21.5654   3.80     1.823     1.751   0.0436        157     78.07336
 5.33   1567.0110  20.3171     1239.229    784.3434 -85.86     2.030     1.671   0.0832        158     94.99292
 5.50   1529.7546  23.9403     44.04382    733.4183 -70.72     0.745     0.453   0.7743        159     31.40109
 6.53   1516.6896  21.1376     582.0571   1546.3409 -54.01     1.328     1.063   0.1398        160     74.94915
 3.50   1508.4398  16.8934     29017.02    269.0288   0.55     2.425     2.347   0.0031        161     81.81102
 3.50    878.8604  21.5693     391.0857    960.9188 -38.71     1.204     1.126   0.1105        162     39.79474
 6.82    880.5679  22.1607     226.8313    670.7686  20.31     0.733     0.453   0.1794        163     37.47458
 8.15    878.4954  21.3987     457.6221    542.0081   1.12     0.795     0.500   0.1203        164     50.69172
 3.76    870.8542  19.5674     2472.008   1103.3297 -62.93     2.030     2.002   0.0322        165     73.33715
 4.19    868.9675  20.7590     824.9224    939.8438  48.58     1.862     1.435   0.0878        166     66.72382
 6.09    870.7626  22.2025     218.2826    643.2283 -45.21     0.935     0.438   0.1884        167     37.87114
 7.86    868.9410  23.1584     90.49719    454.3015  62.52     0.908     0.211   0.4097        168     34.13659
 3.50    861.9903  22.9649     108.1577   1554.1732 -54.13     0.917     0.472   0.2329        169     23.19124
