#   1 KRON_RADIUS            Kron apertures in units of A or B                         
#   2 Y_IMAGE                Object position along y                                    [pixel]
#   3 MAG_BEST               Best of MAG_AUTO and MAG_ISOCOR                            [mag]
#   4 FLUX_BEST              Best of FLUX_AUTO and FLUX_ISOCOR                          [count]
#   5 X_IMAGE                Object position along x                                    [pixel]
#   6 THETA_IMAGE            Position angle (CCW/x)                                     [deg]
#   7 A_IMAGE                Profile RMS along major axis                               [pixel]
#   8 B_IMAGE                Profile RMS along minor axis                               [pixel]
#   9 MAGERR_BEST            RMS error for MAG_BEST                                     [mag]
#  10 NUMBER                 Running object number                                     
#  11 FLUXERR_BEST           RMS error for BEST flux                                    [count]
 3.50    632.3937  11.5954      3818184   1391.4089 -65.63    51.892    22.597   0.0002          1     654.4033
 3.50    575.3050  13.6626     568775.4   1155.0331 -74.12    55.559    16.628   0.0014          2     726.9745
 3.50    207.1070  10.6039      9515674   1067.4913  64.57    86.042    43.977   0.0001          3     1231.203
 3.50    524.1910  15.0006     165870.8   1594.4073  89.81    80.108     7.698   0.0051          4     773.4161
 3.50    352.2237  11.3281      4883984    984.3736  88.58    41.879    20.017   0.0002          5     737.4728
 0.00    126.3779  12.4986      1661720   1185.1979  55.75    48.539    13.166   0.0003          6     469.6231
 0.00    285.1797  13.4557     688209.8    570.8029  80.12    56.676    25.347   0.0012          7     769.6449
 3.50    318.9498  16.0173     65027.62   1594.4489  89.59    31.029     7.833   0.0087          8     520.4937
 3.50    352.2987  10.6312      9279815    814.0750 -89.28    64.800    49.905   0.0001          9      1111.73
 3.50    342.9372  10.7543      8284564   1428.3341  72.77    85.366    33.560   0.0002         10     1214.885
 0.00    447.7484  13.4534     689641.6    470.5728   1.22    54.144    18.316   0.0010         11     660.1241
 0.00    263.0558  13.8833     464154.4    248.3368  45.12    31.376     6.123   0.0008         12     345.8888
 0.00    125.2031  14.3465     302969.3    248.7520 -45.13    28.544     5.633   0.0011         13     315.9516
 3.50    191.5973  13.8034     499633.4    130.8463 -89.70    37.344    13.863   0.0015         14     686.3232
 0.00    194.0387  13.1855       882702    933.5316  -7.13    47.106    23.697   0.0010         15     814.7007
 0.00    139.1184  14.4361     278979.5    499.9589  38.28    19.180    13.532   0.0018         16     469.5107
 3.50    314.1973  11.5700      3908453    540.2120  83.80    37.410    21.433   0.0002         17     589.6132
 0.00    190.8270  13.2506     831320.6   1314.4304   5.62    47.530    21.209   0.0010         18     793.2595
 3.50     73.4941  14.2332     336290.3   1208.6843  57.58    17.553    14.495   0.0015         19      460.973
 3.50    352.4911  11.1939      5526488   1253.1726 -87.21    45.599    22.246   0.0002         20     825.6721
 0.00     73.8024  14.3922     290493.9    437.4654  51.64    18.403    14.528   0.0018         21     472.0821
 3.92     54.0962  16.4523     43560.78     63.4768  10.66     5.140     4.701   0.0049         22     198.1672
 0.00     72.6345  14.3207     310252.1    200.0107 -48.39    17.614    14.668   0.0016         23     464.3827
 3.50     11.5145  13.7241     537479.8   1119.1783  -0.04    22.446     7.587   0.0007         24     357.3071
 3.50     11.5877  12.9706      1075899    319.0648   0.06    34.890     7.614   0.0004         25      442.019
 3.81     17.2858  18.4376     6998.081    984.7308 -89.73     4.479     2.062   0.0185         26     119.4993
 3.50      9.8526  17.6176     14892.67   1274.9840  -4.79    11.670     6.162   0.0195         27     267.0825
 3.50      9.5258  17.5863     15328.06    506.1042  -2.41    11.595     5.994   0.0186         28     262.5678
 3.50     15.4403  18.0461        10036   1445.5632 -61.17     1.758     1.659   0.0067         29     62.23453
 7.47     10.9179  18.5558     6275.937    130.1242  74.01     4.257     3.835   0.0451         30     260.7658
 3.50      4.6718  19.4144     2845.991    142.7690  14.30     5.023     2.291   0.0413         31     108.1054
 3.50     18.7919  19.0798     3873.438     91.0600 -77.47     1.663     1.588   0.0164         32     58.32345
 7.04      4.8132  18.8356     4850.357    962.0982  12.55     6.250     2.303   0.0418         33     186.8392
 0.00    124.5287  14.6552     227994.4    386.7240  44.79    26.261     5.015   0.0014         34     288.2813
 3.50    190.9418  14.8745     186291.3    318.1088 -77.50    16.404    15.465   0.0029         35     489.8751
 0.00    641.1682  11.7862      3202688   1240.7410 -89.87    71.011    27.165   0.0002         36     624.2603
 5.68     38.8928  21.7727      324.267   1521.2972  57.82     1.153     0.680   0.1728         37     51.58175
 3.83     43.2823  21.9292     280.7385    915.3445 -44.85     1.175     0.701   0.1420         38     36.70392
 0.00    704.9387  12.2970      2000751    235.0789  13.31    94.136    49.677   0.0005         39     928.6514
 3.50     80.9651  16.4335     44321.62    537.4864 -58.28     1.900     1.806   0.0016         40     66.16894
 3.50     60.6879  16.6886     35041.22   1078.1769 -51.63     1.417     1.359   0.0015         41     49.58427
 9.57     79.3353  18.6177     5928.248   1330.2224  82.95     2.702     1.161   0.0319         42     174.3919
 8.69     68.3901  20.3886     1160.293    586.4158  36.89     1.732     0.627   0.0874         43     93.39688
 8.92     72.4635  19.8042     1987.622   1322.3820 -67.34     1.330     1.134   0.0616         44      112.831
 9.56     77.4928  19.1321     3691.048   1341.5072  48.21     1.402     1.356   0.0400         45     135.8541
 9.34     72.8533  21.9905     265.3498   1343.9607 -39.94     1.264     0.721   0.1703         46     41.61255
 3.50     76.0080  20.6442     916.8997    127.7343  66.29     1.099     1.073   0.0456         47      38.4954
 9.05     73.3180  20.7353     843.1334    552.1580 -56.63     1.097     0.558   0.0937         48     72.71639
 9.10     77.1741  20.8906     730.7139    563.8197 -44.27     0.741     0.568   0.0909         49     61.14261
 3.50    122.5935  15.9751     67601.59    788.9167 -56.78     2.111     1.967   0.0012         50     72.94761
 9.56     94.5249  18.9083     4536.126   1341.6290  53.63     2.220     1.480   0.0428         51     178.5901
 3.50    413.3260  11.4972      4179447    441.3543   4.39    40.873    22.594   0.0002         52     682.7096
 3.51     97.3153  19.6431     2305.375     56.0121  -7.93     1.526     1.413   0.0252         53      53.5047
 0.00    260.6163  99.0000    -42680.58    387.8619 -44.50    16.932    13.828  99.0000         54     550.8952
 3.50    582.1075  11.8202      3104030    562.1657  56.58    49.145    18.093   0.0002         55     589.0803
 3.50    308.8604  14.3567     300130.8    202.0692  41.35    18.069    14.019   0.0017         56     469.0779
 9.23    142.8268  20.1141     1494.023    632.3856 -63.60     1.426     0.584   0.0630         57     86.66324
 9.40    131.8801  20.5489     1001.044    636.6458 -18.42     0.940     0.662   0.0828         58     76.33181
 3.50    163.1101  16.6117     37611.92   1468.1348 -54.43     1.940     1.845   0.0020         59     67.92706
 0.00    372.4954  14.4451     276677.6    266.7413  51.99    19.324    13.530   0.0018         60     465.2748
 3.50    171.3962  17.9576     10888.79    877.1403 -60.93     1.874     1.827   0.0054         61     53.93304
 9.27    162.4190  19.8243     1951.034    627.8748  55.17     2.083     0.761   0.0671         62     120.4817
 3.50    165.8175  21.0897      608.307   1445.4894  -6.25     1.304     1.095   0.0761         63     42.64611
 8.10    169.1277  21.6138     375.3997    651.5096 -36.47     0.877     0.672   0.1862         64     64.36282
 7.42    211.6741  19.8078     1980.953    684.4976 -80.75     1.939     1.415   0.0693         65     126.4822
 3.50    204.2756  23.1508     91.13275   1498.3649 -40.47     0.564     0.337   0.1694         66     14.21537
 3.50    266.7211  15.7088     86389.23     67.3803 -77.58     2.086     1.969   0.0009         67     72.71639
 3.50    223.3653  21.3867     462.7238    774.7476 -14.32     1.202     0.965   0.0914         68     38.93039
 3.50    573.6757  12.1860      2216239    403.0563 -47.65    48.613    11.129   0.0002         69     472.3317
 3.50    865.1097  13.4258     707454.5   1092.7350  89.92    57.242    13.600   0.0012         70     776.9897
 3.50    282.7665  19.4269     2813.336   1522.1582 -48.32     1.232     1.175   0.0166         71     43.03917
 3.50    639.7369  13.9670     429753.7    636.6946  89.96    32.245    13.487   0.0016         72     634.5895
 3.50    859.5725  11.5756      3888223   1129.1223  89.97    38.850    19.198   0.0002         73     609.9481
 3.50    509.1489  13.8249     489816.8    895.3687   0.10    38.367    13.637   0.0016         74     703.1323
 3.55    322.8381  18.0346      10143.3    697.1180 -79.82     1.881     1.792   0.0072         75     67.42941
 6.85    309.7195  20.8787     738.7856     85.3593 -81.01     1.954     0.903   0.1376         76     93.57701
 3.50    781.9080  11.8458      3031671    485.7255 -48.43    65.520    11.232   0.0002         77     497.5313
 3.50    522.9290  14.2355     335576.4    567.1746  54.40    17.765    15.573   0.0015         78     456.2053
 3.50    527.7264  14.5664     247413.2    393.2644 -53.62    18.499    12.799   0.0019         79     437.9273
 5.31    332.8576  21.4622     431.6218     93.4360  -7.84     1.068     0.836   0.1330         80     52.87149
 3.50    350.8567  20.7309     846.5143     54.4748 -39.34     1.290     1.224   0.0572         81     44.57676
 5.17    348.6103  22.4320     176.6792     42.2832 -59.05     0.983     0.545   0.2419         82     39.36057
 3.50    396.0051  16.2838     50871.77    231.3760 -58.46     1.942     1.870   0.0017         83     81.89452
 3.50    585.5182  14.2768     323071.2    330.9813 -38.39    18.651    14.146   0.0016         84     465.4663
 6.49    371.1452  21.6408     366.1622     71.4294 -16.35     1.203     0.716   0.1838         85     61.96336
 5.04    376.6147  22.1826     222.3068     86.3850  23.02     1.364     0.457   0.1964         86     40.20713
 8.13    381.0482  20.9358     700.9702    125.7678 -10.18     1.120     0.731   0.1169         87      75.4442
 3.50    394.6075  21.7129     342.6292   1088.4695 -30.59     0.822     0.814   0.0956         88     30.15535
 3.50    399.1318  20.1659     1424.459    354.2560 -28.33     0.799     0.753   0.0217         89     28.43074
 3.50    714.4188  12.6224      1482694    303.3004  88.46    27.358     8.482   0.0002         90     337.8065
 6.88    415.6718  21.7647     326.6722      2.5615  35.62     1.257     0.741   0.1861         91     55.96596
 0.00    755.6658  14.1237     371976.1    564.8073  42.18    42.460    18.615   0.0014         92     487.3317
 5.03    421.8590  20.6564     906.6325    158.7348  50.62     1.661     1.444   0.0958         93     79.99435
 3.50    438.7731  17.6604      14316.3    251.8895 -55.52     1.557     1.482   0.0042         94     54.74916
 6.58    428.0669  21.1455     577.8181   1179.5779  41.70     1.584     1.054   0.0988         95     52.55952
 0.00    684.9614  16.4585     43309.72    431.2805 -44.76    21.649     7.025   0.0105         96     419.5487
 4.98    434.8953  21.3510     478.1762    150.9790  14.89     1.133     0.954   0.1194         97     52.55202
 9.45    439.4756  19.0409     4014.745    213.9344  26.41     2.816     1.188   0.0480         98      177.455
 3.50    451.1122  18.7781     5114.053     21.1383 -39.37     1.703     1.572   0.0126         99      59.1833
 8.92    445.1351  20.7284     848.4399    173.6788  62.28     1.158     0.773   0.1112        100     86.85734
 8.90    441.7845  19.7975     1999.864    191.4113 -42.32     1.738     0.873   0.0611        101     112.5321
 9.07    449.4420  20.9829     671.1542    216.0844  81.33     1.722     0.653   0.1145        102     70.74911
 4.29    446.1316  20.9315     703.7119    122.0628 -30.18     1.614     1.155   0.0939        103     60.86657
 3.50    458.6750  18.6701     5648.938     34.3959 -60.50     1.679     1.537   0.0112        104       58.034
 7.31    443.7499  21.5029     415.7603    654.7517 -41.15     1.067     0.696   0.1688        105     64.62392
 8.62    442.4369  21.6601     359.7175    201.3327  -2.79     2.058     0.593   0.1447        106     47.93698
 0.00    821.4017  13.5125     653141.4    500.6896  21.91    56.082    29.660   0.0009        107     535.5578
 9.39    449.4447  19.9121     1799.593    209.1287 -30.97     1.580     0.771   0.0646        108     107.0094
 3.50    702.3883  13.3347     769324.3   1214.1130 -10.86    40.390    15.963   0.0009        109     610.4815
 5.13    461.9187  21.2865     507.4421   1096.1533  54.86     1.155     1.064   0.1248        110     58.32345
 8.69    457.6320  21.6653     357.9949    191.1938 -17.46     0.749     0.447   0.1575        111     51.90719
 3.50    472.2132  20.4324     1114.363    254.0892 -66.29     1.294     1.173   0.0442        112       45.326
 3.50    472.9614  19.7202     2147.427    734.7808 -38.05     1.497     1.347   0.0258        113     50.92463
 3.50    484.9312  20.3322     1222.126   1070.4175 -73.22     1.375     1.240   0.0413        114      46.4272
 4.93    496.9196  19.6092     2378.686     82.5440  53.24     2.411     2.061   0.0517        115     113.2778
 9.04    505.2596  19.2596     3282.018    273.7545  88.54     4.083     0.894   0.0587        116      177.455
 3.75    479.8637  22.1365       231.95    682.6153  17.84     1.030     0.720   0.1537        117     32.82899
 9.21    500.6920  19.9935     1669.626    283.2000  37.45     1.793     0.676   0.0678        118     104.2999
 0.00    810.9186  12.7453      1323922    133.0255 -31.63    47.365    13.212   0.0004        119     496.9715
 9.23    526.1752  18.1299     9290.095    694.2490 -27.92     3.296     2.344   0.0308        120     263.6558
 3.50    505.1145  21.6934     348.8408    762.6562 -79.74     1.163     0.994   0.1198        121      38.4954
 0.00    641.2502  99.0000    -1232.955    476.6158 -79.36    13.750     3.894  99.0000        122     263.7197
 3.50    692.1136  14.3681     297015.4   1398.1703 -60.67    17.147    14.697   0.0016        123     437.2716
 3.50    944.3112  11.9360      2789891    246.3104 -45.39    41.608    12.270   0.0002        124     558.2143
 8.95    507.0856  20.4982     1048.845    260.3371  12.07     1.069     0.737   0.0843        125      81.4546
 3.50    781.5032  11.7399      3342186   1272.6615  27.83    50.395    18.300   0.0002        126      597.377
 5.17    510.6264  20.9385     699.1932    164.3679  -2.91     2.218     0.986   0.1223        127     78.72115
 8.70    507.3418  21.9101     285.7252    268.3015 -47.00     0.567     0.338   0.1480        128     38.93039
 8.71    518.8856  20.9317     703.5712    268.1570  44.51     0.859     0.654   0.1037        129     67.17921
 3.98    541.0534  19.9481     1740.787    999.7314 -53.86     1.536     1.387   0.0366        130     58.61147
 3.50   1086.1444  11.5306      4052869    113.0638 -43.47    43.848    19.960   0.0002        131     824.7405
 0.00    778.3478  14.3015     315803.7     72.2978 -46.22    18.900    14.405   0.0016        132     471.7772
 4.41    559.8713  19.4993     2632.083   1041.5114 -29.66     1.619     1.540   0.0294        133     71.31337
 6.59    597.2618  17.6663     14238.54    782.3675 -80.93     4.117     3.888   0.0207        134      271.274
 4.75    556.4932  22.0505     251.0805    778.7437  88.30     0.943     0.724   0.1702        135     39.36057
 4.30    571.6570  20.0846     1535.156     45.6160  59.60     1.985     1.429   0.0529        136     74.77158
 3.50    581.4247  18.1103     9459.338    144.8221 -84.10     1.781     1.655   0.0070        137     60.86657
 7.57    577.1076  19.9368     1759.099   1001.6425  83.04     1.986     1.377   0.0793        138     128.4637
 4.01    565.5809  21.5133     411.7812    139.6904 -53.97     1.148     1.009   0.1145        139     43.42867
 3.50    688.0392  16.9611     27262.95   1531.5134 -68.20    11.349     9.754   0.0151        140     379.0469
 3.50   1130.6683  11.1723      5637473   1002.3871  18.04    53.799    25.909   0.0002        141     990.7057
 3.50    585.4980  20.9207      710.744     75.9933  34.11     1.282     1.160   0.0675        142     44.19738
 9.28    631.6955  18.2414     8383.665    888.2980  24.32     4.520     2.942   0.0320        143     246.6707
 4.97    631.7404  20.9285     705.6605    805.9729 -80.14     1.209     1.117   0.0915        144     59.46716
 3.50   1590.4493  16.8139     31220.21   1264.6968   0.49    16.219     6.541   0.0113        145     325.6116
 3.50   1590.7308  17.2854     20221.89   1040.8645  -1.14    14.188     6.315   0.0161        146      299.424
 5.51   1597.8674  20.4814     1065.248    655.1654 -32.36     1.909     1.388   0.0778        147     76.33181
 5.62   1595.9124  20.9124     716.1792    374.0342  41.13     1.272     1.258   0.1038        148     68.42107
 7.28   1593.8699  21.2237     537.6727   1385.1064 -26.16     1.529     0.605   0.1464        149     72.48444
 6.78   1592.7118  22.1573     227.5579    566.9949  -0.12     0.742     0.669   0.2334        150     48.90032
 3.50   1567.4852  19.7762     2039.552     22.0536 -35.08     1.501     1.336   0.0276        151     51.90719
 5.14   1562.8250  22.4986     166.1672   1566.5303 -28.41     1.365     0.524   0.2913        152     44.57676
 9.43   1541.4967  20.5296     1018.945   1335.9891 -62.71     1.220     0.491   0.0797        153     74.77158
 3.50   1558.8717  16.1199     59162.99    487.7101 -42.21     1.947     1.877   0.0013        154     68.42107
 3.50   1543.5160  19.6830     2222.252    654.6883 -42.49     1.462     1.341   0.0249        155     50.92463
 9.25   1535.3124  21.8759     294.8643   1348.3517 -63.75     2.402     0.634   0.1652        156     44.84942
 8.51   1539.5172  22.3737     186.4258    263.4748  45.53     0.509     0.490   0.2530        157     43.42867
 3.98   1536.8153  21.5911      383.311   1429.5057 -56.02     1.521     0.861   0.1315        158      46.4272
 9.54   1526.1257  19.4565      2737.84   1331.2883  21.41     1.867     0.783   0.0470        159     118.5088
 4.68   1533.0137  21.1426     579.3569    415.7943 -28.03     1.657     1.117   0.1211        160     64.62392
 9.12   1529.5067  22.3201     195.8595   1347.5441   0.16     1.073     0.500   0.2020        161     36.42358
 9.26   1539.9883  21.3304     487.3636   1328.1267  88.66     1.927     0.942   0.1345        162     60.35006
 9.34   1525.5417  21.9672     271.0988   1345.9468  -5.04     1.939     0.470   0.1727        163     43.11887
 8.15   1522.5964  20.8978     725.9252   1351.9432 -27.01     1.152     0.557   0.1005        164     67.17921
 3.50   1523.4836  23.1037     95.17743     14.4995  44.60     0.509     0.490   0.2294        165     20.10357
 4.89   1519.6189  21.3576     475.2899     84.3915  80.11     1.501     0.882   0.1313        166     57.45073
 3.50   1515.7332  18.2858     8048.182    392.7216 -44.48     1.718     1.630   0.0083        167     61.41741
 5.28   1516.1360  21.3548     476.5065   1547.0355  59.83     1.453     1.003   0.1479        168     64.88399
 6.55   1489.0808  22.0396     253.6122     77.8817 -75.42     0.962     0.688   0.2371        169     55.36091
