#   1 KRON_RADIUS            Kron apertures in units of A or B                         
#   2 Y_IMAGE                Object position along y                                    [pixel]
#   3 MAG_BEST               Best of MAG_AUTO and MAG_ISOCOR                            [mag]
#   4 FLUX_BEST              Best of FLUX_AUTO and FLUX_ISOCOR                          [count]
#   5 X_IMAGE                Object position along x                                    [pixel]
#   6 THETA_IMAGE            Position angle (CCW/x)                                     [deg]
#   7 A_IMAGE                Profile RMS along major axis                               [pixel]
#   8 B_IMAGE                Profile RMS along minor axis                               [pixel]
#   9 MAGERR_BEST            RMS error for MAG_BEST                                     [mag]
#  10 NUMBER                 Running object number                                     
#  11 FLUXERR_BEST           RMS error for BEST flux                                    [count]
 3.50     47.7751  15.4958     105581.9   1809.4619  -1.17     2.089     2.052   0.0008          1     80.64646
 3.97     25.0814  19.8529      1908.76    128.1734 -45.03     2.091     1.738   0.0485          2     85.27242
 4.54     15.3222  18.5336     6433.707    104.8332  -6.11     3.175     2.184   0.0228          3     134.9773
 3.72     13.0684  20.3335      1226.05    391.8920  59.41     1.504     1.341   0.0531          4     59.96079
 6.76     13.6875  21.2452     529.4646    683.3903  -2.32     1.254     0.771   0.1520          5     74.12109
 3.50      2.9619  17.2402        21175   1272.4957  -9.60     3.973     2.324   0.0051          6     99.88973
 3.67     10.1252  21.1184     595.0635    710.6763  38.74     1.267     1.089   0.0906          7     49.64063
 3.50      2.0099  19.1253     3730.669   1789.0267   0.33     1.899     1.180   0.0146          8     50.04586
 8.50      5.9299  21.3122     497.7581    146.3240 -81.33     0.738     0.673   0.1468          9     67.26379
 6.64      3.7148  22.5839     154.2981    889.3494  41.64     0.562     0.339   0.2324         10     33.02587
 5.82     13.9713  22.5674     156.6531   1557.7551 -88.59     0.685     0.430   0.2413         11     34.81232
 5.29     21.4538  21.1971     553.4354    481.9894   5.47     1.249     1.094   0.1383         12     70.48958
 4.57     24.3629  20.8733     745.7653    283.2458 -14.97     1.667     1.254   0.1091         13     74.93414
 6.52     21.3041  21.9232     283.5536    573.2457 -30.80     0.854     0.623   0.2037         14      53.1767
 3.50     39.7215  18.7881     5089.567   1592.2009 -60.76     1.666     1.578   0.0137         15     64.19075
 4.61     28.7470  21.2325     535.6843   1992.9584  10.63     1.178     1.024   0.1160         16     57.20248
 3.50     37.4445  20.3343     1225.144     37.1807  76.99     1.688     1.470   0.0555         17     62.59768
 6.20     26.8429  22.5435     160.1467     54.5985  70.13     0.736     0.448   0.2760         18     40.69718
 3.59     35.4037  20.5791     977.8069    430.7780 -74.85     1.277     1.273   0.0573         19     51.63502
 3.50     83.8007  14.4508     276434.8     84.8643  -3.95     2.244     2.160   0.0003         20     86.21469
 3.50     47.2534  18.4943      6670.77   1392.4606  40.24     1.707     1.656   0.0109         21     66.66052
 6.38     37.2027  21.2639     520.4089    483.5290 -89.12     1.500     0.835   0.1672         22     80.14398
 5.97     33.5543  21.7438     334.4832    290.7148  14.45     1.164     0.705   0.1969         23     60.63077
 8.37     28.3340  22.3147     197.7161   1831.3383 -44.82     0.580     0.332   0.2262         24     41.19049
 6.73     32.0227  22.0200     259.3528    857.3048  79.38     0.738     0.676   0.2211         25      52.7955
 3.51     50.6770  18.5524     6323.448   1630.2522  43.05     1.677     1.660   0.0114         26     66.35683
 7.78     36.0702  21.4587     434.9465    199.1733 -50.26     0.846     0.670   0.1642         27     65.74523
 3.50     43.1428  21.0711      621.543    898.0880  55.11     1.244     1.113   0.0816         28     46.70563
 6.22     40.5510  21.8540     302.2133    700.6210 -75.23     0.995     0.802   0.2284         29     63.55831
 4.93     43.1997  21.9363     280.1497    985.7956  79.54     0.887     0.868   0.1908         30     49.23206
 5.31     43.4737  22.0498     252.3301    945.3765 -80.54     0.946     0.807   0.2239         31     52.02472
 8.01     40.5179  22.5145     164.4714    781.5137  44.80     0.509     0.490   0.3026         32     45.83255
 7.30     43.8012  21.6082      378.972   1639.3257  22.33     0.736     0.651   0.1629         33     56.84828
 6.61     47.4660  21.7292      339.024   1689.1411  64.14     1.155     0.572   0.1931         34     60.29671
 3.50     78.6238  17.2139     21693.28   1562.9475  79.05     1.875     1.830   0.0037         35     73.02294
 6.37     48.8061  21.9069     287.8295   1044.5131  88.44     0.817     0.795   0.2172         36      57.5545
 3.50     53.6231  21.8890     292.6118    938.2899  20.78     1.014     0.910   0.1375         37     37.06055
 5.34     67.4396  20.3092     1253.803   1211.8975 -27.65     1.823     1.643   0.0901         38     104.0494
 4.28     59.8182  22.4354     176.9055    630.8182  43.25     1.530     0.484   0.2437         39     39.69215
 3.50     64.0894  21.9750     270.3356    910.6484 -45.58     1.372     0.665   0.1532         40     38.13499
 7.20     64.1118  21.7166     342.9612    888.1830 -47.87     0.830     0.666   0.1951         41     61.62207
 4.98    136.9296  19.8161     1974.511   1157.3732 -11.59     2.620     1.404   0.0595         42     108.2359
 3.72     84.9909  18.9240     4490.511   1858.2599  71.86     1.685     1.631   0.0168         43     69.62464
 6.90     74.9768  21.7323     338.0638    166.9249 -64.99     1.158     0.573   0.2001         44     62.27417
 6.19     75.9414  21.0269     647.3778   1145.3097  58.20     1.204     0.982   0.1279         45     76.26997
 7.33     73.8695  21.5497     399.9636    146.2144 -59.05     1.021     0.657   0.1818         46     66.96284
 3.50     85.5553  19.4774     2697.359    147.8975 -70.42     1.568     1.494   0.0239         47     59.28325
 4.43     83.2871  20.0820     1545.687   1742.1411  52.08     1.455     1.356   0.0493         48     70.20245
 6.45     74.6615  22.7465     132.8293   2024.6877 -46.24     0.570     0.337   0.2700         49     33.02587
 3.50    119.3527  15.7912     80429.13    409.0343 -22.81     2.062     2.012   0.0011         50     80.64646
 9.56     77.4801  21.9596     274.2057   1958.4961  28.47     0.500     0.499   0.2194         51     55.40885
 5.19    136.9196  21.2059     548.9629   1138.6598  65.79     1.253     1.021   0.1313         52     66.35683
 5.79     96.5909  20.2013     1384.791    467.8998 -35.84     1.569     1.440   0.0769         53     98.05299
 6.53     92.0373  20.5150     1037.299   1929.6885  31.82     1.368     1.284   0.1027         54     98.05299
 3.50    103.3458  18.9588     4348.999    203.0595  42.96     1.747     1.635   0.0166         55     66.66052
 6.32     90.7653  21.1821     561.1134    913.5170 -66.85     1.286     0.914   0.1486         56      76.7978
 4.01    158.2316  17.6506     14509.55    363.6902  70.04     6.237     2.478   0.0133         57     177.3949
 4.54     98.8311  20.1422     1462.254    210.1937  11.85     1.596     1.463   0.0451         58     60.66286
 3.67     96.5028  20.4900     1061.472    965.2560 -24.37     1.346     1.281   0.0556         59     54.30424
 3.76    103.2407  19.4973      2648.34    224.8436  16.46     1.645     1.472   0.0270         60     65.74523
 4.80     98.0901  21.0278     646.8359   1234.5125  86.90     1.307     0.994   0.1051         61     62.59768
 6.39     94.4370  21.6540     363.3267   1740.3676 -69.49     0.961     0.826   0.1919         62     64.19075
 8.40     93.2749  21.2662     519.3179   1289.9292  32.15     1.065     0.647   0.1639         63     78.35995
 8.02     95.6481  21.7281     339.3618    907.1627  60.49     0.751     0.653   0.2003         64     62.59768
 4.32    104.0908  21.0945     608.2867    662.3414  60.39     1.497     1.164   0.1146         65     64.19075
 4.66    104.8935  21.3515     480.0842    617.4846   3.78     1.247     1.103   0.1416         66     62.59768
 6.64    104.3713  21.5671     393.5917   1173.9756 -32.58     1.815     0.503   0.1984         67     71.90802
 6.69    104.4429  21.6565     362.4841    421.6488  64.64     0.953     0.821   0.1979         68     66.05173
 4.57    111.4689  20.6813     889.9984    638.8632   1.28     1.340     1.250   0.0810         69     66.35683
 4.42    108.3102  21.3564     477.9048    975.7573  25.38     1.079     0.964   0.1155         70     50.84665
 5.05    116.7018  20.7696     820.5018    238.1115 -37.68     1.428     1.303   0.1037         71     78.35995
 3.50    129.8689  18.6107     5992.981     17.1366 -37.25     1.977     1.734   0.0133         72     73.29902
 8.81    107.5183  23.0814     97.57458   1199.4955  14.02     0.500     0.500   0.5480         73     49.23206
 5.62    115.7704  22.4473     174.9709   1351.7662  71.84     0.853     0.347   0.2124         74      34.2272
 3.60    124.6857  20.9570     690.3895   1575.7261  48.11     1.290     1.222   0.0812         75     51.63502
 3.60    134.5454  20.0074     1655.567    237.8255 -64.98     1.599     1.469   0.0408         76     62.27417
 3.58    123.9276  21.2567     523.8473   1053.9829 -89.50     1.136     1.095   0.0913         77     44.03449
 6.46    120.5023  22.1401     232.2014    272.5155  18.66     0.972     0.413   0.2184         78     46.70563
 5.11    136.0206  19.8215     1964.717    217.8281   3.12     2.547     1.523   0.0623         79     112.6256
 3.50    202.0947  14.2091     345358.4    841.4165 -26.26     2.290     2.207   0.0003         80     88.52649
 5.46    127.2258  22.7232     135.7081    265.3993  71.91     0.767     0.450   0.2922         81     36.51147
 3.50    135.3488  21.3251     491.8751    617.4883  38.37     1.385     1.135   0.1087         82     49.23206
 3.50    132.3410  21.6071     379.3606    497.8210  15.89     1.251     0.947   0.1221         83     42.63621
 5.21    171.0096  20.0794     1549.376   1421.2386   3.11     2.618     1.421   0.0798         84     113.8741
 5.21    135.4933  21.7227     341.0458   1461.6962  53.07     1.147     0.672   0.1632         85     51.24235
 4.56    136.6467  22.0598     250.0272    991.9123 -64.24     0.904     0.696   0.1810         86     41.67797
 3.50    180.8305  15.3907     116315.6     57.8205   1.03     2.121     2.063   0.0008         87     83.11328
 3.50    423.8297  13.1811     890179.5    446.7198 -23.01     7.028     6.434   0.0003         88     264.9703
 6.05    148.9804  20.7364     845.9652   1018.4108  33.26     1.360     1.234   0.1139         89     88.75436
 7.28    146.9513  21.4240     449.0532   1777.9203 -74.82     1.247     0.737   0.1895         90     78.35995
 7.44    146.3951  22.2543     209.0115    927.2054  18.42     0.778     0.445   0.2558         91     49.23206
 4.67    154.6954  21.5912     384.9701    942.3511 -59.53     1.160     0.849   0.1468         92     52.02472
 4.48    155.0822  21.3419     484.3409    499.2713 -69.81     1.129     1.096   0.1259         93     56.13318
 5.71    152.3335  23.1701     89.92419    217.6546  44.53     0.583     0.330   0.3433         94     28.42414
 4.65    181.0154  19.5551     2511.113    267.4341 -86.61     2.502     1.838   0.0486         95     112.4461
 3.50    164.5790  21.5340     405.7961    115.1227 -33.13     1.171     1.046   0.1166         96     43.57338
 6.12    161.3596  21.8981     290.1803   1861.7961 -16.23     0.969     0.640   0.2046         97     54.67493
 6.25    161.8151  22.2943     201.4573   1309.8341  46.14     0.762     0.564   0.2423         98     44.94251
 7.08    168.8051  20.8497     762.0911   1774.1622  35.94     1.489     0.996   0.1391         99     97.64013
 4.24    168.9172  21.0714     621.3711    965.9404  38.12     1.215     1.075   0.0949        100     54.30424
 6.61    163.9012  21.7994     317.7897    946.1003  45.04     0.831     0.673   0.1881        101     55.04311
 4.68    185.2039  19.6153     2375.602   1478.5349  65.92     2.317     1.719   0.0484        102     105.9729
 3.50    169.4879  22.3074     199.0376    692.0450  85.91     0.828     0.679   0.1734        103     31.77916
 7.59    168.6057  22.2554     208.8115    123.7763  19.01     0.747     0.448   0.2624        104     50.44785
 4.68    180.9934  21.1262      590.787   1175.8380 -32.67     1.451     1.118   0.1242        105     67.56342
 3.53    188.5265  21.1992     552.3645   1651.2532  -2.23     1.423     1.243   0.1015        106     51.63502
 7.44    187.4356  20.8513     760.9817    853.2240  48.89     1.178     1.020   0.1302        107     91.22334
 3.50    198.1050  19.4846     2679.629   1286.7784  59.92     1.602     1.476   0.0248        108     61.29342
 8.07    183.2076  22.3539     190.6901   1297.4166  70.39     0.745     0.451   0.3007        109      52.7955
 3.50    199.2946  19.2250      3403.46   1316.4335 -66.66     1.617     1.599   0.0203        110     63.55831
 4.34    191.1088  21.5735     391.2908   1382.2776  -1.59     1.089     1.003   0.1411        111     50.84665
 5.92    190.2158  21.9677      272.155   1127.5168   2.25     0.980     0.724   0.2283        112     57.20248
 6.03    198.5749  20.9095     721.2838   1996.5325 -38.76     1.484     1.196   0.1363        113     90.55666
 6.11    200.9094  21.4211     450.2682   1874.3276  84.50     1.055     0.900   0.1622        114     67.26379
 5.62    202.8932  21.4744     428.6735    286.9711  36.64     1.456     0.814   0.1749        115       69.042
 4.76    210.8043  20.3851     1169.175    905.5334 -87.00     1.516     1.257   0.0686        116     73.84808
 5.91    203.5934  21.9223     283.7827   1385.7551 -87.31     0.983     0.713   0.2148        117     56.13318
 5.13    207.3578  21.6237     373.6184   1567.1519  23.80     1.127     0.855   0.1652        118     56.84828
 6.27    209.0812  21.6561     362.6268    174.6127 -15.94     1.036     0.731   0.1816        119     60.63077
 6.05    221.7847  21.3483     481.4791   1674.9954 -84.52     1.556     0.718   0.1647        120     73.02294
 3.50    234.4955  19.1253     3730.709   1319.2437  87.11     1.677     1.557   0.0189        121     64.81702
 8.19    214.5098  22.1576     228.4841   1766.5563  56.15     0.502     0.494   0.2178        122     45.83255
 5.97    218.9956  21.9249     283.0902   1560.6688 -35.88     1.027     0.628   0.2040        123      53.1767
 3.98    232.7005  20.4212     1130.889    867.2000  15.26     1.481     1.249   0.0579        124     60.29671
 5.64    230.5946  21.4375     443.5031   1769.6071  10.83     1.235     0.957   0.1698        125     69.33393
 4.54    238.0278  20.8780       742.51   1024.9519   8.89     1.547     1.339   0.1076        126     73.57407
 3.71    247.9480  20.0937     1529.104   1603.9935  36.25     2.268     1.582   0.0562        127     79.12946
 6.71    235.3030  22.1108     238.5447    801.4216  32.27     0.936     0.549   0.2489        128     54.67493
 6.99    236.1177  21.8593     300.7247   1172.6427  17.78     0.974     0.671   0.2272        129     62.91952
 4.95    245.3051  21.6551     362.9541   1848.4601  57.40     1.236     0.837   0.1701        130     56.84828
 3.83    249.9222  20.7500       835.45    240.0003 -60.10     1.395     1.286   0.0753        131     57.90438
 3.50    332.4452  13.6502     577839.1    850.3535 -10.62     2.442     2.305   0.0002        132     93.19478
 3.50    256.2734  20.7032     872.2267     58.4184  29.38     1.390     1.098   0.0608        133     48.82006
 5.44    281.6423  18.8583     4770.588    599.3572 -59.38     2.831     2.551   0.0375        134     164.6393
 5.19    258.9586  21.4118     454.1475   1938.5734 -66.93     1.062     0.897   0.1393        135     58.25216
 5.13    267.4176  21.2783     513.5447    505.8069 -55.77     1.189     0.933   0.1282        136     60.63077
 4.42    275.9170  19.8668     1884.405    726.3789  10.96     2.355     1.672   0.0570        137     98.87353
 6.30    267.7991  21.9276     282.3876   1078.7241   6.10     0.894     0.768   0.2254        138     58.59787
 3.50    293.7979  17.7238     13564.26     51.8876  41.00     1.834     1.800   0.0057        139     71.62658
 4.49    284.1187  19.8405     1930.634    985.2731   9.43     2.066     1.635   0.0523        140      92.9778
 3.53    273.8155  20.9915     668.8151   1168.9657  34.52     1.204     1.120   0.0751        141     46.27115
 7.17    267.5219  22.4715     171.1136   1515.5095  41.85     0.501     0.498   0.2676        142     42.15982
 5.54    272.1343  21.8911     292.0646   1480.8132 -28.88     0.979     0.748   0.1977        143      53.1767
 6.71    273.3091  21.9651     272.8219   2025.0941 -29.87     0.888     0.596   0.2191        144     55.04311
 5.23    275.0131  22.7143     136.8246    838.2280 -89.45     0.697     0.420   0.2522        145     31.77916
 5.10    278.5295  21.9042     288.5616   1156.8646  47.16     1.034     0.720   0.1883        146     50.04586
 4.92    282.1840  21.8616     300.1017    818.3969 -46.76     1.184     0.854   0.2018        147     55.77219
 5.78    284.5416  21.0604     627.6932    547.8062  20.93     1.323     0.987   0.1292        148     74.66411
 6.38    279.4843  22.6446     145.9034   1571.4686  78.09     0.500     0.499   0.2676        149     35.95401
 4.29    289.3799  21.5081     415.5758    433.3553  60.81     1.187     0.938   0.1329        150     50.84665
 3.50    294.8807  20.0154     1643.419   1438.4133  54.96     1.451     1.440   0.0376        151     56.84828
 3.82    298.4335  20.4784     1072.881   1524.7085 -13.69     2.206     1.295   0.0731        152     72.18837
 4.18    304.3109  20.0636     1572.007    961.7872  30.98     2.325     1.670   0.0642        153      92.9778
 7.22    293.9982  21.7645     328.1715   1876.1555  -2.17     0.947     0.748   0.2256        154      68.1587
 4.28    320.3971  18.7043     5497.573    616.9211 -76.42     2.491     2.308   0.0227        155      115.109
 3.50    301.6922  22.0002     264.1417     92.8669  77.39     1.030     0.744   0.1431        156     34.81232
 3.50    315.5953  19.2594     3297.056     69.5812   6.94     1.696     1.590   0.0213        157     64.81702
 6.36    303.6768  21.6687     358.4507   1643.0951  67.24     0.911     0.689   0.1722        158     56.84828
 3.50    589.6677  13.4924     668255.1    182.8338 -17.24     6.547     5.990   0.0004        159     246.5702
 4.86    350.5802  17.6827     14086.67    666.2453 -43.26     4.069     3.045   0.0148        160     192.5723
 3.50    335.1689  17.2114     21744.01   1015.9412  -2.43     1.898     1.836   0.0037        161     73.57407
 3.87    327.7777  19.1325     3706.038    906.0149  28.58     1.738     1.578   0.0212        162     72.46763
 3.98    330.8407  20.1512     1450.173    517.9651 -11.76     1.530     1.391   0.0492        163     65.74523
 3.50    342.3271  18.5684      6230.52    212.7338 -10.85     1.717     1.698   0.0118        164     67.86171
 5.80    323.8529  21.9684     271.9889   1528.4736 -25.76     1.128     0.583   0.2123        165      53.1767
 3.50    367.1026  17.3513     19115.03    365.0495  31.65     3.945     2.723   0.0073        166     128.8526
 6.92    338.8359  20.2551     1317.856    223.4326 -18.41     1.345     1.155   0.0799        167     97.01756
 6.20    326.4298  22.3536     190.7483    393.0092  88.69     0.778     0.612   0.2756        168     48.40457
 4.47    340.3760  20.3625     1193.674   1552.3898 -70.86     1.755     1.281   0.0689        169     75.73847
