#   1 NUMBER                 Running object number                                     
#   2 FLUX_BEST              Best of FLUX_AUTO and FLUX_ISOCOR                          [count]
#   3 FLUXERR_BEST           RMS error for BEST flux                                    [count]
#   4 MAG_BEST               Best of MAG_AUTO and MAG_ISOCOR                            [mag]
#   5 MAGERR_BEST            RMS error for MAG_BEST                                     [mag]
#   6 KRON_RADIUS            Kron apertures in units of A or B                         
#   7 X_IMAGE                Object position along x                                    [pixel]
#   8 Y_IMAGE                Object position along y                                    [pixel]
#   9 A_IMAGE                Profile RMS along major axis                               [pixel]
#  10 B_IMAGE                Profile RMS along minor axis                               [pixel]
#  11 THETA_IMAGE            Position angle (CCW/x)                                     [deg]
         1     3766.132     174.6721  19.1150   0.0504  6.25   1647.0709     26.4915     2.958     2.144  31.28
         2     3883.073     67.93871  19.0818   0.0190  3.96   1941.9868     17.9671     1.624     1.497 -85.15
         3     466.0569     56.97906  21.3837   0.1328  4.29    169.1046     17.9107     1.568     0.930  52.98
         4     359.7748     64.08714  21.6647   0.1935  7.50   1582.3114     11.2896     1.081     0.557 -63.62
         5     436.7494     64.08714  21.4542   0.1594  6.49   1811.2614      9.9056     0.987     0.828  37.19
         6     243.6975     47.21867  22.0877   0.2104  7.33    335.6210      8.1942     0.769     0.451 -73.24
         7     1826.966     71.30959  19.9005   0.0424  4.68   1602.9838      2.2750     2.003     1.437  -2.39
         8     312.5383     55.58912  21.8175   0.1932  6.07   1016.7794      5.0980     1.206     0.652 -76.94
         9        302.1     54.88095  21.8544   0.1973  6.03     98.5942      5.4326     0.994     0.682  34.34
        10     453.5393     60.63735  21.4132   0.1452  7.28    698.1990      2.9920     1.323     0.547  25.09
        11     740.5013     67.65022  20.8810   0.0992  6.06    686.3784      2.0239     1.675     0.905   8.77
        12      180.665     24.22266  22.4126   0.1456  3.50    504.6548      1.4289     0.914     0.482   8.22
        13     2690.257     71.58334  19.4803   0.0289  4.30   1482.8679     29.3350     1.591     1.408  87.24
        14     311.7072     51.57399  21.8204   0.1797  9.14   1449.5017     13.9950     0.811     0.308 -58.36
        15     503.0009     51.57399  21.3009   0.1114  3.50    104.4232     25.2731     1.544     1.162 -77.21
        16     304.3817     48.44533  21.8462   0.1728  8.88    378.5100     19.5315     0.504     0.495  42.18
        17     786.6057     65.59528  20.8154   0.0906  4.96    929.8914     35.4471     1.305     1.100 -65.09
        18      131.182     37.00073  22.7601   0.3063  7.62    300.3286     26.3016     0.561     0.341 -43.56
        19     656.4016     48.03992  21.0119   0.0795  3.50    516.4299     41.5144     1.323     1.105  87.36
        20     2627.625     109.0468  19.5059   0.0451  4.53    550.0869     65.5800     2.760     1.700 -71.58
        21       3482.7     59.00262  19.2000   0.0184  3.50     77.3858     47.5405     1.576     1.462  82.24
        22     449.2355     67.06952  21.4236   0.1621  7.17   1448.8123     37.0085     0.922     0.760  -6.94
        23     1809.295      82.9722  19.9110   0.0498  5.05   1613.3472     53.3535     1.528     1.447  58.80
        24     137.4534     38.04321  22.7094   0.3006  5.75   1029.6289     42.1951     0.764     0.445 -72.48
        25     4352.329     121.7575  18.9580   0.0304  4.41    519.8821     74.8720     2.812     2.179  84.94
        26     2102.618     69.36315  19.7479   0.0358  3.50    139.9962     60.4509     1.853     1.703 -20.24
        27     335.5238     60.31395  21.7405   0.1952  7.18   1464.2684     47.8447     1.100     0.521 -36.46
        28     2148.828     76.08642  19.7243   0.0385  4.71   2039.9457     61.5188     1.571     1.367  77.14
        29     246.1711     51.19336  22.0767   0.2258  6.95    877.1786     49.1961     0.781     0.567  42.98
        30     197.7987     45.10015  22.3142   0.2476  8.19    821.5023     52.0031     0.788     0.317 -57.59
        31     133.9946     21.66541  22.7371   0.1756  3.50    513.0062     50.5002     0.790     0.316 -32.35
        32     498.3535     67.65022  21.3109   0.1474  5.78   2029.2487     62.8848     1.135     0.972 -70.90
        33     340.3623     63.78124  21.7249   0.2035  7.11   1616.8848     62.4436     1.110     0.590 -62.57
        34     188.9202     44.66439  22.3641   0.2568  7.78   1151.0000     59.9742     0.859     0.289  90.00
        35      195.605     38.55388  22.3263   0.2141  7.72    390.6775     57.3105     0.563     0.341  44.37
        36     338.2556     61.91406  21.7317   0.1988  8.29    746.8667     58.3510     1.078     0.419  13.29
        37     273.8093     54.16352  21.9612   0.2148  6.73    381.3265     64.5882     0.952     0.546 -58.38
        38     545.1853      79.6038  21.2134   0.1586  6.94    709.2628     68.6433     1.244     0.863  24.68
        39     333.7565     53.80122  21.7462   0.1751  5.60   1658.9302     67.0388     1.038     0.728   1.05
        40     799.6901     49.64169  20.7975   0.0674  3.65    936.5364     76.4685     1.307     1.140  86.05
        41     1260.307     117.6733  20.3036   0.1014  6.69   1332.3121     87.3375     2.152     1.169  88.08
        42     235.3815     50.80989  22.1254   0.2344  7.78    953.6157     71.8084     0.765     0.448  72.24
        43     854.0909      59.9888  20.7260   0.0763  3.50   1025.9706     85.2820     1.594     1.492  74.15
        44     1110.036     66.13701  20.4414   0.0647  5.74   1697.9368     94.5491     1.885     1.293  88.25
        45     538.6653     75.57057  21.2265   0.1524  6.46   1872.5619     80.7115     1.196     0.938 -79.38
        46     18645.99     68.79691  17.3783   0.0040  3.50    453.6153    101.9015     1.833     1.688  87.46
        47     70283.63     75.31133  15.9376   0.0012  3.50   1480.0895    148.7343     2.001     1.900 -83.03
        48     510.6898     76.08642  21.2844   0.1618  7.71   2019.2091     81.4649     1.078     0.731 -47.33
        49     15657.05     66.77728  17.5680   0.0046  3.50   1008.8705    102.6751     1.755     1.692  86.86
        50     2270.364     97.69474  19.6645   0.0467  5.15   1342.6067    101.1270     1.871     1.542 -76.73
        51     2129.515     74.00146  19.7341   0.0377  4.42   1701.8820    103.2826     1.653     1.391  83.80
        52     641.3398     79.11089  21.0371   0.1340  7.00   1175.3208     92.7015     1.211     0.872  73.37
        53     1128.229     75.82893  20.4238   0.0730  5.42   1637.3967     96.2809     1.345     1.180  62.02
        54     349.7195     64.08714  21.6955   0.1990  6.46    795.1349     93.5461     1.104     0.729  51.77
        55     112.0194     35.37946  22.9315   0.3430  6.87    308.5026     89.4943     0.503     0.497 -44.87
        56     401.9331     67.93871  21.5444   0.1836  6.98    408.7786     96.4171     1.077     0.724  49.73
        57     236.9509     44.66439  22.1181   0.2047  7.03    157.5854     95.7691     0.722     0.460  71.57
        58     678.8473     87.78279  20.9754   0.1404  6.43    441.9948    105.8248     1.322     1.140  87.54
        59     451.7448     62.54265  21.4175   0.1504  6.19   1955.8345    104.3940     1.037     0.791 -57.92
        60     3936.298     71.30959  19.0671   0.0197  4.00   1258.1428    122.5991     1.709     1.507  89.34
        61     17439.12     70.48199  17.4510   0.0044  3.50   1577.8752    139.1314     1.868     1.766  86.54
        62     96.60278     21.66541  23.0923   0.2436  4.17   1808.6515    104.6764     0.580     0.332 -43.96
        63     283.7356     55.23617  21.9225   0.2114  7.55   1500.8584    109.1227     0.765     0.568 -50.59
        64     18036.74     69.64455  17.4144   0.0042  3.50    771.8448    140.2114     1.866     1.730  84.55
        65     6938.548     63.47386  18.4516   0.0099  3.50   1863.1251    128.0072     1.697     1.600  69.10
        66     216.9158     39.55544  22.2141   0.1980  7.97   1888.3314    107.6953     0.564     0.340  43.62
        67     542.2333     78.36572  21.2193   0.1570  5.85   1506.5341    120.0791     1.290     1.159 -27.89
        68     1055.361     69.08061  20.4963   0.0711  4.53   1373.3097    130.1362     1.390     1.349  48.17
        69      112.604      26.5346  22.9259   0.2559  5.31   1720.6884    117.6470     0.576     0.333 -46.80
        70     643.1708     73.47098  21.0340   0.1241  6.14   1186.0841    123.5470     1.177     0.962  16.69
        71     223.5409     49.64169  22.1814   0.2412  8.19    244.0071    118.7465     0.691     0.435   0.36
        72     1906.599     89.32877  19.8541   0.0509  4.39    363.8372    140.8358     2.385     1.428  47.35
        73     604.3568     78.11575  21.1015   0.1404  8.54    763.6558    123.2028     0.890     0.771  -8.03
        74     422.6133     66.77728  21.4899   0.1716  7.10    889.9673    128.7347     1.318     0.542  63.85
        75      515.838     61.27903  21.2735   0.1290  5.06    988.0619    129.6417     1.221     0.957  63.38
        76     254.2548     57.66147  22.0416   0.2463  7.94   1742.9845    128.0233     0.848     0.503 -45.46
        77     1244.842     74.79013  20.3170   0.0652  5.21   1797.5446    141.5693     1.358     1.235  66.41
        78     467.6757     43.77985  21.3799   0.1017  3.95     85.3038    138.6451     1.081     0.945  78.47
        79     809.1431     97.89473  20.7847   0.1314  7.62    721.2741    139.8244     1.341     1.005 -34.85
        80     12603.63     70.48199  17.8035   0.0061  3.50    452.7217    161.3777     1.868     1.781  45.91
        81     757.7925     92.76574  20.8559   0.1329  6.02    345.6674    145.6904     1.877     1.012  58.25
        82     281.9487     48.44533  21.9294   0.1866  8.95   1759.5105    135.5075     0.505     0.495  45.15
        83     1195.238     98.69064  20.3611   0.0897  6.02     40.6581    148.4376     1.567     1.389 -34.09
        84     361.1583     59.33317  21.6605   0.1784  6.60   1905.9727    143.5631     1.050     0.656 -62.06
        85     1932.457     113.0968  19.8395   0.0636  5.58    597.8142    157.4684     1.973     1.692 -14.45
        86     172.6334     35.37946  22.4620   0.2226  6.20    557.4737    146.4538     0.505     0.492 -41.93
        87     1729.355     127.1017  19.9601   0.0798  5.84    550.9597    171.3877     2.246     1.712 -74.58
        88     126.0103     35.37946  22.8038   0.3049  6.65   1608.4930    151.4915     0.503     0.497 -44.87
        89     81479.51     74.79013  15.7772   0.0010  3.50    350.0078    194.5666     1.969     1.868 -89.90
        90     1681.644     66.77728  19.9904   0.0431  3.50    259.4762    171.5577     1.765     1.629  80.69
        91     1450.242     72.93664  20.1512   0.0546  4.78   1991.0076    168.3275     1.441     1.293 -81.20
        92     2001.189      58.3359  19.8016   0.0317  3.62   1020.8877    169.7038     1.509     1.390 -89.80
        93     158.8774     35.92802  22.5521   0.2456  6.85    534.4924    154.4826     0.519     0.480  44.82
        94     156.2598     38.55388  22.5702   0.2679  7.84    851.6857    155.3536     0.577     0.333  46.68
        95     480.6617     65.59528  21.3502   0.1482  8.57   1615.2836    156.4276     1.000     0.477  -8.48
        96      98.9845     32.49812  23.0659   0.3566  6.50   1143.6704    158.3238     0.572     0.336  44.73
        97     245.0276     47.63106  22.0817   0.2111  5.32    341.9099    166.9695     1.172     0.573 -63.98
        98      314.978      53.0692  21.8091   0.1830  5.62    693.7338    171.2967     0.938     0.759  45.54
        99     2749.865      102.004  19.4565   0.0403  4.98    766.3348    185.1148     2.031     1.657  -5.96
       100     416.8896     67.06952  21.5047   0.1747  5.89   1020.2969    176.4241     1.532     0.686  41.55
       101      330.674     57.32129  21.7563   0.1883  6.13    232.2538    173.5358     1.000     0.714  89.35
       102     423.7858     63.16498  21.4869   0.1619  6.20   1182.7476    177.0514     0.999     0.834  32.81
       103     986.9438     85.52579  20.5690   0.0941  5.72     38.7123    189.9656     1.456     1.236 -80.88
       104     830.6431     48.03992  20.7562   0.0628  3.52    458.7516    192.9014     1.332     1.166  87.86
       105     515.7229     62.22915  21.2737   0.1310  4.72    969.2155    188.6646     1.196     1.173  73.59
       106     1097.423     96.07984  20.4538   0.0951  5.74     18.0553    195.4731     1.654     1.399  79.35
       107     237.5168     49.64169  22.1155   0.2270  5.98    573.8565    184.8692     0.838     0.658 -46.95
       108     380.0828     64.69462  21.6051   0.1849  5.82   1178.7527    190.7688     1.168     0.864  52.42
       109     170.2637     40.04684  22.4770   0.2554  6.41   1295.6082    185.7716     0.750     0.446  70.78
       110     354.8571      58.6702  21.6796   0.1796  8.05   1879.5098    184.6664     0.910     0.471   1.53
       111     1972.051     82.73615  19.8175   0.0456  4.58   1677.5028    203.2450     1.737     1.529 -73.55
       112     1049.193     61.91406  20.5026   0.0641  4.08    473.9245    198.9632     1.386     1.360  34.76
       113      1323.83     72.39835  20.2502   0.0594  4.27    279.8327    199.0839     1.591     1.455  70.20
       114     1305.933     92.97633  20.2650   0.0773  5.44    900.6860    205.0399     1.778     1.333  74.51
       115     130.4022     35.37946  22.7666   0.2946  6.95   2017.4886    189.5069     0.502     0.497 -45.46
       116     373.1333     65.59528  21.6251   0.1909  6.55    987.6069    196.4421     1.096     0.733 -62.13
       117     323.1287     63.16498  21.7813   0.2123  7.40   1538.9827    198.5416     1.207     0.494 -63.58
       118     620.1381      85.2968  21.0736   0.1494  6.54   1480.1700    210.4055     1.635     0.838  61.30
       119     507.5897      79.6038  21.2910   0.1703  6.85    985.0367    207.9072     1.506     0.721 -35.57
       120     1729.355     75.31133  19.9601   0.0473  4.58   1745.4019    218.4570     1.722     1.285  66.54
       121     60.13452     39.05787  23.6070   0.7054  7.96    410.3252    203.6808     0.568     0.338  44.71
       122     413.8955     46.38287  21.5126   0.1217  3.61    259.5743    212.1023     1.337     1.037  28.45
       123      420.547     64.99623  21.4952   0.1678  8.43   1047.3317    205.5728     1.015     0.475   8.95
       124     354.6226      69.9248  21.6804   0.2141  8.03   2037.5996    211.3858     0.870     0.693 -18.63
       125     242.9432     43.33082  22.0910   0.1937  7.81    646.9507    210.5213     0.769     0.323 -33.14
       126     203.4697     36.46832  22.2835   0.1946  4.44    736.4744    213.5035     1.081     0.500  -0.77
       127     2057.625      72.1277  19.7714   0.0381  4.30   1632.4784    232.9903     1.647     1.398  85.80
       128     281.4391     40.28062  21.9313   0.1554  7.14   1975.5122    219.0452     1.149     0.696   0.56
       129     306.3413     43.16738  21.8393   0.1530  5.92   1970.3451    218.7178     1.295     0.671  15.88
       130     149.7914     34.82227  22.6161   0.2525  7.35   1864.2554    218.6345     0.554     0.340  51.30
       131     219.8723     51.57399  22.1994   0.2547  9.26   1021.5324    218.4885     0.503     0.495  48.23
       132     170.5482     45.53173  22.4752   0.2899  7.87   1443.0039    216.0000     0.853     0.289   0.00
       133     342.2549     57.99967  21.7189   0.1840  8.29   1089.0135    221.5044     0.793     0.499   3.24
       134     1489.532     80.09367  20.1222   0.0584  5.23   1777.6477    235.9377     1.408     1.371  69.92
       135     605.0815     76.08642  21.1002   0.1366  6.15    930.2176    231.0277     1.168     1.065 -29.13
       136     112.3898     21.66541  22.9280   0.2093  4.95    771.6817    224.6997     0.556     0.343 -43.97
       137     215.4966     31.27132  22.2212   0.1576  3.60    156.7184    236.1112     0.946     0.678  19.97
       138      183.751     41.95488  22.3942   0.2480  7.44     40.5127    234.5418     0.511     0.487  43.08
       139     775.4189     89.10956  20.8309   0.1248  6.60   1267.8284    245.7288     1.266     1.176  59.91
       140     528.0155      71.0348  21.2482   0.1461  7.30   1881.8417    240.4376     1.054     0.724  50.60
       141     295.7209     62.54265  21.8776   0.2297  8.41   1664.1674    235.6922     1.083     0.413  11.92
       142     1307.381     64.69462  20.2638   0.0537  3.50     14.0959    255.0190     1.824     1.495  89.34
       143     19526.53     69.64455  17.3282   0.0039  3.50   1749.8987    275.4456     1.846     1.743  79.79
       144     216.6613     46.38287  22.2153   0.2325  8.23    945.0000    250.0212     0.857     0.289  90.00
       145     319.6985     67.06952  21.7929   0.2278  6.19    195.9624    255.7283     1.098     0.874  -1.84
       146     1037.724     62.54265  20.5146   0.0655  4.39     54.8488    261.4212     1.338     1.252  12.51
       147     155.0748     39.05787  22.5784   0.2735  7.92   1048.3064    255.3253     0.562     0.341 -46.00
       148     1108.611      67.3605  20.4428   0.0660  4.31   1847.9153    270.0767     1.416     1.399  64.30
       149     23961.75     71.30959  17.1060   0.0032  3.50   1858.7313    289.1194     1.877     1.782 -71.95
       150      110.546     27.96992  22.9459   0.2748  5.82   1632.6465    259.2979     0.570     0.336  42.37
       151     658.2091     90.20029  21.0089   0.1488  7.02    854.7265    269.1446     1.327     1.011 -49.54
       152     242.1593     32.49812  22.0945   0.1457  3.50    187.0305    269.7971     0.927     0.754 -83.08
       153     193.6699     43.33082  22.3371   0.2430  7.61   1366.5050    264.4965     0.503     0.497 -45.05
       154     179.7415      41.4861  22.4182   0.2507  7.11    961.9812    264.2191     0.699     0.414   0.74
       155      213.433     40.53227  22.2316   0.2062  8.19    124.6783    264.3419     0.576     0.334  45.89
       156     25233.48     70.48199  17.0498   0.0030  3.50    562.3620    296.0280     1.855     1.763  81.70
       157     470.7351     75.57057  21.3728   0.1743  6.85    741.9490    270.3398     1.288     0.772  29.71
       158     169.3813     42.87708  22.4826   0.2749  6.68    470.1956    265.5971     0.746     0.449 -19.40
       159     151.4351     37.52559  22.6042   0.2691  7.64    496.3147    269.6665     0.569     0.338  45.90
       160     10503.36     67.06952  18.0015   0.0069  3.50   1786.3577    295.4152     1.765     1.671 -69.97
       161     836.7849     96.68859  20.7482   0.1255  6.25    489.6555    281.6823     1.500     1.301 -52.94
       162     173153.8     80.09367  14.9587   0.0005  3.50   1873.6226    335.8639     2.105     1.966 -79.28
       163     1140.055     51.57399  20.4125   0.0491  3.50    162.4500    300.3802     1.426     1.269 -89.46
       164     567.3474     76.08642  21.1702   0.1456  8.78    636.4266    292.9638     1.225     0.494  27.01
       165     1166.188     113.7864  20.3879   0.1060  7.13    723.4673    311.1205     2.202     0.934  73.20
       166     309.9073     51.57399  21.8267   0.1807  9.19   1568.5303    293.4990     0.502     0.497  50.66
       167     752.4158        94.23  20.8636   0.1360  7.59    909.0809    304.1981     1.272     0.977  41.89
       168      104.087     21.66541  23.0113   0.2260  3.55   1209.5211    302.4635     0.503     0.495 -41.84
       169     186.6718     43.33082  22.3771   0.2521  7.32   1520.2551    305.9908     0.682     0.436  89.51
