#   1 NUMBER                 Running object number                                     
#   2 FLUX_BEST              Best of FLUX_AUTO and FLUX_ISOCOR                          [count]
#   3 FLUXERR_BEST           RMS error for BEST flux                                    [count]
#   4 MAG_BEST               Best of MAG_AUTO and MAG_ISOCOR                            [mag]
#   5 MAGERR_BEST            RMS error for MAG_BEST                                     [mag]
#   6 KRON_RADIUS            Kron apertures in units of A or B                         
#   7 X_IMAGE                Object position along x                                    [pixel]
#   8 Y_IMAGE                Object position along y                                    [pixel]
#   9 A_IMAGE                Profile RMS along major axis                               [pixel]
#  10 B_IMAGE                Profile RMS along minor axis                               [pixel]
#  11 THETA_IMAGE            Position angle (CCW/x)                                     [deg]
         1     274626.8     371.4893  14.4579   0.0015  3.50    402.3775    233.9814    10.634     8.778 -38.77
         2      3136694     265.1164  11.8136   0.0001  3.50   1105.8607    181.0399     7.094     6.715 -42.10
         3     231681.8     80.97546  14.6426   0.0004  3.50    535.8597     79.0787     2.118     2.057 -46.23
         4     232167.3     272.4633  14.6403   0.0013  3.50     61.9890     52.6576     7.509     6.689   7.32
         5     242225.9     83.76854  14.5942   0.0004  3.50   1076.9382     58.9499     2.264     2.130  83.78
         6     30306.48     124.1562  16.8509   0.0044  3.50    983.4832     15.7246     4.835     2.175 -87.67
         7     4277.561     61.61309  18.9768   0.0156  3.50    365.4074     23.8132     1.622     1.553  19.99
         8     2039.688     52.40152  19.7809   0.0279  3.50    382.9857     16.2983     1.477     1.343 -70.55
         9     672.8105     94.52209  20.9850   0.1526  6.67    966.0981     20.1056     2.237     0.744 -58.57
        10     52613.55     70.60364  16.2520   0.0015  3.50   1444.2244     13.8115     1.862     1.815 -54.26
        11     19490.55     63.75413  17.3302   0.0036  3.50     89.4705     17.0203     1.683     1.635 -20.39
        12     536.3464     55.73114  21.2312   0.1128  4.81   1213.4308     17.2415     1.085     1.033  79.84
        13     1154.485     69.50894  20.3988   0.0654  3.76    839.6125     13.4007     2.133     1.359 -68.56
        14     917.9638     87.35383  20.6477   0.1033  6.50   1561.3882     14.8121     1.337     1.107 -18.66
        15     1002.049     49.15024  20.5526   0.0533  3.50   1182.2854      9.1747     1.315     1.231 -85.83
        16     945.8037     75.84047  20.6153   0.0871  4.88   1468.1166      5.8627     1.554     1.389 -25.95
        17     2064.365     67.26612  19.7678   0.0354  3.74    143.4042      3.7545     1.942     1.678  38.72
        18     997.2278     73.26886  20.5578   0.0798  4.97    183.9256      3.8112     1.566     1.484 -19.06
        19     160.7353     42.90185  22.5395   0.2899  9.07   1576.6566      4.2992     0.566     0.338  42.80
        20      581.538       40.131  21.1433   0.0749  3.50    302.4330      2.2875     1.287     1.131 -20.51
        21     485.7553     45.08098  21.3387   0.1008  4.12    842.9996      2.5093     1.425     0.862   8.77
        22     308.7068     50.30688  21.8309   0.1770  6.32    161.3416      3.1164     0.897     0.694 -21.52
        23     103.9382     22.32683  23.0128   0.2333  5.77    785.6578      1.2892     0.561     0.340  42.18
        24     177.3317     27.69302  22.4328   0.1696  4.27    761.6531      1.4143     0.961     0.475   9.06
        25     188.0902      38.1722  22.3689   0.2204  6.39    480.8256      1.2961     1.026     0.407  12.67
        26     267.4902      55.0388  21.9865   0.2235  6.70    894.3039     28.1417     0.897     0.608 -56.46
        27     1485.659     55.21856  20.1250   0.0404  3.50    381.4121     22.9870     1.552     1.385  26.97
        28     502.3976     63.75413  21.3022   0.1378  5.51    192.9379     15.4396     1.309     0.843 -25.96
        29     2658.389     76.84502  19.4932   0.0314  3.95   1108.5092     33.0238     2.186     1.436  64.83
        30     477.8162     46.33929  21.3566   0.1053  3.50    212.2944     20.8810     1.210     1.171 -74.93
        31     179.5721     37.15409  22.4192   0.2247  5.69   1470.5825     16.2838     0.725     0.462 -72.04
        32     744.3445     67.26612  20.8753   0.0981  4.87   1451.7214     24.3459     1.372     1.150 -35.86
        33     296.4377     56.75381  21.8749   0.2079  6.53    181.6721     17.1754     0.918     0.675  18.35
        34     645.5754     62.23233  21.0299   0.1047  5.13    696.7333     22.8933     1.116     1.083  17.60
        35     212.1328     43.34644  22.2383   0.2219  6.35    628.7789     18.1974     0.742     0.553 -46.74
        36     208.8905     47.56433  22.2550   0.2473  4.88    948.8282     24.1206     1.485     0.545  75.63
        37     1787.291     79.54216  19.9243   0.0483  4.58    325.0564     32.3680     1.665     1.482 -22.27
        38     142.9769     43.34644  22.6666   0.3292  6.82    648.1984     20.2118     1.002     0.347 -43.75
        39     535.7695     53.46561  21.2323   0.1084  6.57    701.4138     25.9967     1.647     0.896  -2.71
        40      294.528     51.80891  21.8820   0.1910  5.64    882.8975     21.0868     0.934     0.746  10.48
        41     213.8444     42.90185  22.2295   0.2179  5.36    406.5530     21.1786     1.072     0.489 -42.10
        42     320.5805     59.07124  21.7899   0.2001  8.74    301.0722     18.5246     0.785     0.499   0.32
        43     350.7816     53.98364  21.6922   0.1671  5.35    530.0192     24.7367     1.014     0.845  56.98
        44     234.5439     30.96174  22.1292   0.1434  3.50    202.1923     23.9405     1.029     0.632  34.70
        45     258.1485     51.06342  22.0251   0.2148  5.50    815.2517     27.6324     0.920     0.760 -81.13
        46      292.959     45.92369  21.8878   0.1702  5.20   1486.0225     29.2800     0.897     0.748 -88.49
        47     198.7155     43.78652  22.3092   0.2393  7.68    571.9785     24.4922     0.802     0.312  31.95
        48     1668.865     69.23256  19.9987   0.0451  3.55    438.6863     43.2296     2.026     1.583 -54.06
        49     1656.889     63.14981  20.0065   0.0414  3.96   1169.1199     37.9935     1.507     1.404  14.53
        50     635.8113     84.67909  21.0465   0.1446  7.94   1066.5337     33.8063     1.192     0.788  65.46
        51     426.3996     46.75121  21.4802   0.1191  4.18     14.6483     33.7003     1.145     0.912  80.06
        52     1307.632     52.90745  20.2636   0.0439  4.02   1519.9520     37.1255     1.249     1.175 -76.64
        53     132.4684     32.17639  22.7495   0.2638  6.76    180.6672     27.6671     0.577     0.334 -45.00
        54     1533.381     63.14981  20.0907   0.0447  4.47    913.7721     41.5011     1.388     1.161 -59.67
        55     631.5043     49.53879  21.0538   0.0852  3.50   1224.5693     38.6517     1.488     1.071 -33.73
        56     208.0519     41.53954  22.2594   0.2168  6.49   1030.2761     33.2959     1.216     0.286 -54.81
        57     224.1826     33.91689  22.1783   0.1643  4.00   1293.6444     31.8803     0.929     0.676 -22.21
        58     199.4633     44.65366  22.3051   0.2431  7.86   1340.5347     29.5043     0.505     0.494  47.95
        59     344323.5     81.44763  14.2124   0.0003  3.50    787.4702    120.9343     2.157     2.096 -47.65
        60     1219.114     75.58725  20.3397   0.0673  4.18    263.5575     49.2597     1.825     1.506 -83.71
        61     173.0726     43.34644  22.4592   0.2720  6.27   1262.9725     35.8139     0.814     0.510 -54.05
        62      121.929     41.53954  22.8395   0.3700  8.60   1588.3168     33.3085     0.559     0.342 -44.54
        63     350.1413     63.75413  21.6942   0.1977  6.82   1126.4724     39.3315     0.924     0.798 -21.87
        64     531.8315     52.90745  21.2403   0.1080  4.10    226.7347     42.8438     1.493     0.922  35.67
        65     539.2341     43.71889  21.2253   0.0880  5.10   1429.2076     46.5393     1.116     1.104 -37.60
        66     370.9373       40.131  21.6315   0.1175  3.50   1000.2679     41.4391     1.253     0.882 -12.66
        67     221.1056     47.15952  22.1933   0.2316  7.43   1513.4132     39.2582     0.727     0.457  71.13
        68     539.0444     67.26612  21.2257   0.1355  5.48    473.0158     45.6939     1.310     0.972 -21.07
        69     302.9096     68.67647  21.8515   0.2462  7.19    315.2479     43.6984     1.103     0.686 -72.42
        70     152.5331     29.04469  22.5964   0.2068  4.57   1035.0298     40.9707     0.625     0.596   1.40
        71     1011.004     45.70482  20.5429   0.0491  3.50   1433.9248     49.4510     1.292     1.149  -1.77
        72     641.9817     73.26886  21.0360   0.1239  5.59    664.5062     46.6659     1.272     1.123  -3.57
        73     328.0341     57.42548  21.7650   0.1901  6.75    730.0420     47.2526     0.978     0.611  64.60
        74     547.9832     75.07824  21.2079   0.1488  6.65    879.9092     49.3908     1.156     0.908 -10.03
        75     223.7224     47.96572  22.1805   0.2328  6.04    386.1674     49.5999     0.886     0.608 -79.92
        76     507.6568     62.23233  21.2909   0.1331  6.16    119.5620     50.4000     0.978     0.859  39.15
        77     260.4402     51.43751  22.0155   0.2145  5.92   1231.9867     47.9893     0.803     0.766  54.67
        78     612.6244     85.13071  21.0868   0.1509  6.72   1095.5955     53.7217     1.440     0.924  25.30
        79     131.3026     33.91689  22.7591   0.2805  5.98    577.4872     46.4635     0.514     0.485 -43.85
        80      169.826      38.1722  22.4798   0.2441  5.32    914.5299     51.0270     0.791     0.497  85.78
        81     8259.851     61.30112  18.2624   0.0081  3.50    126.4639     74.0746     1.608     1.549 -36.00
        82     1203.197     63.45269  20.3539   0.0573  3.50   1146.3190     65.1213     1.723     1.584 -13.22
        83     383.0091     56.41498  21.5968   0.1600  4.89    468.7836     58.4485     1.318     0.828  49.81
        84     270.2512     44.65366  21.9754   0.1794  7.48    188.2154     53.2797     0.824     0.349  73.10
        85     138.0791     33.91689  22.7045   0.2668  7.35   1451.3477     50.6953     0.571     0.336  42.98
        86     220.3905     32.76683  22.1968   0.1615  3.75    319.5156     53.9820     1.039     0.642 -26.94
        87     265.9348     44.65366  21.9928   0.1824  7.45    713.9626     51.2132     0.702     0.409   1.41
        88     335.3655     35.57233  21.7410   0.1152  3.50   1240.3855     57.3668     1.139     0.762 -38.30
        89     735.0412     62.84547  20.8890   0.0929  4.31   1414.0514     66.8233     1.434     1.240 -66.66
        90     188.3596     44.22221  22.3673   0.2550  6.19   1404.2054     57.0118     0.929     0.464  51.94
        91     172.3483     40.60595  22.4638   0.2559  7.23   1035.5228     55.5307     0.511     0.488 -44.48
        92     298.7061     71.14467  21.8667   0.2587  7.08    765.8586     61.8460     0.918     0.900 -22.87
        93     235.5255     39.65038  22.1247   0.1828  5.00   1114.6226     59.7249     0.975     0.535  29.48
        94     539.3187     52.49731  21.2252   0.1057  4.63     17.8143     68.4337     1.305     1.108  50.60
        95     211.8437     48.36379  22.2397   0.2479  6.46    281.8348     62.1769     0.773     0.566 -43.95
        96     242.4889     52.54382  22.0931   0.2353  8.22   1036.7750     59.5976     0.755     0.450  18.69
        97     627.7719     49.53879  21.0603   0.0857  3.72   1320.7249     70.8718     1.267     1.135 -52.07
        98     390.9213     36.63443  21.5746   0.1018  3.50   1514.5621     65.5809     1.030     0.920 -50.34
        99     274.0065     54.68934  21.9604   0.2168  6.47    130.7237     62.9318     0.963     0.618  24.84
       100     158.4772     41.99855  22.5549   0.2878  6.02   1162.5974     60.1866     0.991     0.381   5.17
       101     355.6917     44.32285  21.6771   0.1353  7.29     21.8448     69.1217     1.221     0.849 -76.98
       102     2134.065     60.98756  19.7318   0.0310  3.50    419.7956     81.2973     1.737     1.469 -81.99
       103      12432.8     67.26612  17.8184   0.0059  3.50     54.3841     95.5598     1.798     1.727  64.67
       104     4776.029      95.5309  18.8571   0.0217  3.63    375.3818     89.6493     2.547     2.273 -18.28
       105      1497398     105.8149  12.6164   0.0001  3.50    316.2785    192.5929     3.026     2.483 -62.14
       106     279.2369     47.15952  21.9398   0.1834  4.95    828.6815     68.7988     1.125     0.691  17.04
       107     287.7261     43.78652  21.9073   0.1653  4.27   1347.8939     72.3809     1.342     0.648 -45.06
       108     1371.748     108.8516  20.2116   0.0862  5.79    930.6314     83.1528     2.049     1.445 -39.19
       109     440.8583     66.98049  21.4440   0.1650  6.22   1255.5217     73.5162     1.149     0.821 -45.23
       110     1341.938     87.13407  20.2354   0.0705  5.37    757.2433     87.4433     1.610     1.357  64.31
       111     458.1602     58.87733  21.4022   0.1396  8.14   1070.2133     77.1245     1.632     0.814 -30.30
       112      375.183      53.2686  21.6192   0.1542  4.85    732.3786     74.1664     1.078     0.902 -29.52
       113     734.4404     46.75121  20.8899   0.0691  3.50   1031.9869     78.7737     1.317     1.133 -12.12
       114     760.8807     49.15024  20.8515   0.0702  3.50   1358.2537     87.1814     1.407     1.190 -89.09
       115     907.0101     71.68162  20.6608   0.0858  4.46    862.2872     86.7435     1.861     1.149 -29.57
       116     562.7541     54.68934  21.1790   0.1055  4.29   1559.1210     84.9799     1.429     0.922  44.14
       117     349.5225     66.98049  21.6961   0.2081  6.29    843.3592     84.4391     1.203     0.794  84.91
       118     1133.141     82.38384  20.4191   0.0790  4.95   1043.9253     90.8994     1.938     1.170  54.49
       119     358.8137     43.08567  21.6676   0.1304  6.49    923.3099     85.5822     1.103     0.860 -67.26
       120     152.1765     39.65038  22.5989   0.2830  5.95   1488.6091     81.7517     0.757     0.449  71.81
       121     600.9909     74.04972  21.1076   0.1338  6.03    810.4886     87.8710     1.285     0.963 -70.00
       122     1260.418     55.73114  20.3035   0.0480  4.07    494.1918     90.5993     1.279     1.238 -48.83
       123       180.63     42.90185  22.4128   0.2579  6.07   1412.1635     83.8264     0.749     0.562 -49.69
       124     2967.991     70.33156  19.3736   0.0257  3.50    451.0889     97.1877     2.431     1.374 -15.96
       125     80.70383     21.45092  23.2875   0.2887  4.97    468.3146     83.3173     0.562     0.341 -45.14
       126     1310.254     72.74362  20.2614   0.0603  4.77   1074.8386     94.6380     1.521     1.280  23.11
       127     337.3412     58.74578  21.7346   0.1891  6.76    735.2778     86.8510     0.921     0.686  22.05
       128     635.1302     70.87467  21.0476   0.1212  6.20   1098.1969    106.3319     1.136     0.933 -12.56
       129     249.6008      42.4526  22.0617   0.1847  4.62    870.6570     93.4827     1.107     0.647 -50.33
       130     288.3591     50.30688  21.9049   0.1895  5.58    667.9649     93.5585     1.007     0.667 -61.78
       131     343.3932     39.16385  21.7153   0.1239  3.99    387.6487     94.2225     0.950     0.831 -16.30
       132     243.8666     47.15952  22.0869   0.2100  5.06    559.8550     96.2501     1.011     0.742 -80.28
       133     723.4375     77.83662  20.9063   0.1168  5.45    517.6116    101.7927     1.576     1.079  15.53
       134     1536.433     110.5989  20.0885   0.0782  5.81    268.6600    112.8096     1.888     1.596  72.58
       135     653.0714     76.84502  21.0174   0.1278  5.83   1420.7061    107.0059     1.615     0.894 -42.11
       136     581.7789     42.90185  21.1429   0.0801  3.50    861.2603    107.2812     1.176     1.069  79.32
       137      100.631     32.17639  23.0480   0.3472  6.89    848.6563     97.6695     0.581     0.331 -44.46
       138     558.9894     79.30075  21.1863   0.1541  6.56    179.9335    106.7319     1.334     0.905 -45.43
       139     213.5444     45.08098  22.2311   0.2293  6.65   1531.9949    102.0056     0.992     0.388 -59.55
       140     985.5344     66.11619  20.5706   0.0729  4.41    414.3137    114.1422     1.563     1.184 -64.81
       141      210.865     45.50428  22.2448   0.2344  7.24    812.2355    101.5760     0.731     0.459 -18.82
       142     194532.1     77.34241  14.8323   0.0004  3.50   1466.8153    161.4554     2.020     1.988 -50.78
       143     1438.286     72.47958  20.1602   0.0547  4.21     65.1696    116.2593     1.914     1.263  16.32
       144     444.1015      38.6712  21.4361   0.0946  3.50   1513.2997    110.1495     1.130     0.885  -3.01
       145     181.9229     41.07539  22.4051   0.2452  7.45   1043.4897    105.4558     0.506     0.492 -41.03
       146     861.5787     51.06342  20.7165   0.0644  3.50    989.4056    116.1976     1.343     1.306  70.34
       147      833.592     47.15952  20.7524   0.0614  3.50    152.4680    116.7087     1.257     1.197 -79.16
       148     318.3426     69.78423  21.7975   0.2381  6.29    565.4056    113.6734     1.172     0.858  55.28
       149     366.3586     47.56433  21.6450   0.1410  3.88    911.7692    117.8095     1.212     1.002 -64.29
       150     218.9137     45.08098  22.2041   0.2236  4.36   1411.8466    113.0157     1.135     0.741  -9.45
       151     272.4385     51.43751  21.9666   0.2050  7.50    656.9948    113.9909     0.613     0.610 -89.28
       152     160.6977     34.47754  22.5398   0.2330  5.78   1480.7544    111.7737     0.846     0.348  17.51
       153     1209.811     65.24044  20.3480   0.0586  3.50    492.5876    125.2557     1.941     1.442   2.66
       154     43278.37     71.94859  16.4641   0.0018  3.50    875.6189    169.2820     1.908     1.864 -60.45
       155     272.1725     50.30688  21.9677   0.2007  5.15   1400.4867    118.3578     0.966     0.792 -10.93
       156      177.639     42.90185  22.4309   0.2623  6.18    299.7966    116.0171     0.807     0.503  35.12
       157     179.2923     36.10729  22.4209   0.2187  5.69   1578.7384    114.5822     0.710     0.460  19.13
       158      335.495     64.35278  21.7406   0.2083  6.61    262.1101    123.3501     1.042     0.752  75.20
       159     179.1982     44.65366  22.4214   0.2706  5.49   1570.5808    121.1369     0.881     0.601 -11.83
       160     571.1222     51.43751  21.1630   0.0978  4.14    884.1531    128.1595     1.189     1.083  46.21
       161      331.045     60.67238  21.7551   0.1990  6.45    867.5879    122.8829     1.023     0.735  15.07
       162     193.7762     40.60595  22.3365   0.2276  6.51   1436.2285    120.4215     0.731     0.452  20.28
       163     595.0062     82.15079  21.1185   0.1499  7.11   1371.5291    126.1285     1.165     0.944  32.96
       164      176.016     41.07539  22.4409   0.2534  7.36   1425.4612    123.9629     0.802     0.311  58.20
       165     1089.203     53.62731  20.4620   0.0535  4.36    416.3064    130.1945     1.185     1.060  23.36
       166     376.6994     36.10729  21.6148   0.1041  3.50   1477.0881    127.3015     1.027     0.839  34.42
       167     1551.816     91.00857  20.0777   0.0637  4.64    884.2524    141.1751     2.560     1.250  51.73
       168     424.1382     45.08098  21.4860   0.1154  3.50     97.7356    133.9798     1.549     0.907 -80.27
       169     290.9991     55.38605  21.8951   0.2067  6.14    461.1927    129.4976     0.923     0.738  89.89
