#   1 NUMBER                 Running object number                                     
#   2 EXT_NUMBER             FITS extension number                                     
#   3 FLUX_BEST              Best of FLUX_AUTO and FLUX_ISOCOR                          [count]
#   4 FLUXERR_BEST           RMS error for BEST flux                                    [count]
#   5 MAG_BEST               Best of MAG_AUTO and MAG_ISOCOR                            [mag]
#   6 MAGERR_BEST            RMS error for MAG_BEST                                     [mag]
#   7 X_IMAGE                Object position along x                                    [pixel]
#   8 Y_IMAGE                Object position along y                                    [pixel]
#   9 A_IMAGE                Profile RMS along major axis                               [pixel]
#  10 B_IMAGE                Profile RMS along minor axis                               [pixel]
#  11 THETA_IMAGE            Position angle (CCW/x)                                     [deg]
         1   1      1844156     151.9619  12.3903   0.0001   1107.8212    182.2387     4.912     4.532 -39.89
         2   1     47652.46     97.72361  16.3596   0.0022   1078.7438     59.9974     3.045     3.014 -71.19
         3   1     41652.48     178.1911  16.5057   0.0046     63.9191     53.4462     5.337     4.876   1.33
         4   1     5869.765     122.5816  18.6332   0.0227    985.4625     16.9279     4.427     2.434 -87.34
         5   1     3455.482     68.11803  19.2085   0.0214     91.5117     18.2198     2.184     2.115 -89.07
         6   1     10183.53     82.28766  18.0350   0.0088   1446.0903     14.9005     2.591     2.467 -42.62
         7   1     179.5975     32.84943  22.4190   0.1986   1466.3320      7.3019     0.563     0.340 -43.42
         8   1     220.1687      43.1442  22.1979   0.2128    144.8630      5.0664     0.803     0.681 -83.56
         9   1     215.5485      39.8955  22.2209   0.2010   1580.0042      4.0000     0.836     0.289   0.00
        10   1     1227.091     99.09428  20.3326   0.0877    367.6416     25.1080     1.770     1.749  25.91
        11   1     532.5973     68.51292  21.2388   0.1397    385.0856     17.1741     1.396     0.608 -33.22
        12   1     443.3542     61.01511  21.4379   0.1495   1109.8557     34.8687     1.403     0.661  64.00
        13   1     46314.64     95.34827  16.3905   0.0022    537.8431     80.3081     2.976     2.935 -75.15
        14   1     346.5166     59.44749  21.7055   0.1863   1521.1277     37.7023     0.976     0.690  69.14
        15   1     183.6979     41.22571  22.3945   0.2437   1170.7451     38.6061     0.754     0.451  18.03
        16   1     248.1896     41.22571  22.0678   0.1804    915.0546     42.1870     0.940     0.466  36.06
        17   1     105.8363     29.38142  22.9932   0.3015    564.4238     44.2103     0.750     0.451  70.29
        18   1     1670.721     79.28223  19.9975   0.0515    128.0787     75.2320     2.038     1.769  -2.00
        19   1     68621.27     97.86154  15.9636   0.0015    789.4222    121.9990     3.091     2.991 -43.34
        20   1     550.7968     77.56223  21.2023   0.1529    422.8607     80.6871     1.831     0.583 -69.48
        21   1      1299.39     115.6748  20.2704   0.0967    377.0970     90.7526     2.137     1.682  89.82
        22   1     2335.494     82.28766  19.6338   0.0383     56.4106     96.7815     2.142     1.995 -47.91
        23   1     294149.2     110.3027  14.3834   0.0004    318.2503    193.6603     3.620     3.229 -65.56
        24   1     596.3466     81.62935  21.1160   0.1487    453.0418     97.9849     1.999     0.927 -10.20
        25   1     8841.938     94.06646  18.1884   0.0116    877.6066    170.5666     2.602     2.549 -15.84
        26   1     38533.64     93.63528  16.5902   0.0026   1468.6017    162.5963     2.946     2.848 -50.03
        27   1     47577.57     229.7113  16.3613   0.0052    403.9568    234.9475     6.716     5.681 -44.17
        28   1     101.2267     23.22806  23.0415   0.2492   1511.9980    131.7585     0.691     0.428  -0.09
        29   1      161.285     32.01767  22.5358   0.2156    417.6746    131.3489     0.580     0.331  45.96
        30   1      699.614     82.45142  20.9426   0.1280   1446.0771    165.6580     1.415     1.198 -42.49
        31   1     606.0981     60.79364  21.0984   0.1089    104.9961    166.8963     1.508     1.309 -74.33
        32   1     78.79614     23.80167  23.3135   0.3280    537.6866    159.3234     0.564     0.340  45.51
        33   1     1434.742     118.4403  20.1628   0.0897   1350.5507    192.8279     2.995     1.451 -34.85
        34   1     5253.574     154.8634  18.7536   0.0320    827.9761    211.0280     4.227     2.650  -4.84
        35   1     1939.602     82.77796  19.8355   0.0463    549.4034    206.7372     2.105     1.879 -48.39
        36   1     1710.501     83.91085  19.9720   0.0533   1306.4326    212.5210     2.091     1.821 -68.03
        37   1     5197.177      179.323  18.7654   0.0375    562.5081    230.1652     3.810     3.408 -38.49
        38   1     1212.988     104.6552  20.3451   0.0937    349.5309    209.1250     2.423     1.452  12.30
        39   1       105054     101.2487  15.5012   0.0010    997.7167    260.0322     3.194     3.098 -32.12
        40   1     240.8987     57.60371  22.1002   0.2597    250.2823    202.8634     0.953     0.674  19.02
        41   1     486.4434     80.12838  21.3372   0.1789    684.3036    210.9014     1.540     1.020 -59.48
        42   1     1907.911     76.86346  19.8534   0.0438   1226.2937    224.0377     2.086     1.923 -23.73
        43   1     1099.639     119.0084  20.4517   0.1175    346.7842    221.8811     2.225     1.519   7.61
        44   1      736.385     79.62177  20.8870   0.1174    775.3899    222.7527     1.809     1.449 -54.77
        45   1     87272.13     98.68507  15.7026   0.0012     67.7354    266.0527     3.128     3.024 -43.78
        46   1     1991.209     123.3495  19.8070   0.0673    113.0364    243.7053     2.694     1.956 -77.12
        47   1     360379.8     107.3277  14.1629   0.0003    439.6373    312.5910     3.406     3.276 -48.13
        48   1     636.3308     83.74995  21.0456   0.1429    838.7144    239.4138     1.844     0.858 -80.72
        49   1     4211.916      121.254  18.9936   0.0313    613.4468    255.5604     3.019     2.554 -39.07
        50   1     92.26514     32.84943  23.1422   0.3867    538.6587    229.6942     0.568     0.338 -43.29
        51   1     20779.57     93.63528  17.2607   0.0049   1486.5533    287.9363     3.094     2.740 -28.72
        52   1     532.3313     64.45524  21.2393   0.1315   1374.1746    252.1395     0.995     0.700   9.83
        53   1     178.6279     32.01767  22.4249   0.1947   1353.6771    253.6793     0.567     0.339 -44.89
        54   1      4357.13     76.15827  18.9568   0.0190   1522.4907    282.1217     2.404     2.334 -38.99
        55   1     319900.1     109.5665  14.2922   0.0004    891.0381    351.6739     3.498     3.322 -50.77
        56   1     59736.08     97.03101  16.1142   0.0018    905.7338    318.9506     3.057     2.975 -52.66
        57   1     14820.82     87.22128  17.6276   0.0064    201.9461    303.2986     2.728     2.688  81.04
        58   1     1966.665     99.63726  19.8205   0.0550    515.3391    289.9463     2.317     2.098  73.50
        59   1     307662.5      107.076  14.3346   0.0004   1346.0488    351.7511     3.424     3.249 -34.10
        60   1      1837.63     79.62177  19.8941   0.0471   1327.9517    294.1810     2.116     1.894 -78.21
        61   1     1037.802     98.54829  20.5145   0.1031   1413.6317    298.0721     2.558     1.413 -45.20
        62   1     9720.434     81.95917  18.0856   0.0092    697.5565    322.3132     2.545     2.527  78.95
        63   1     879.2203     89.51093  20.6945   0.1106    563.7846    302.6077     1.690     1.453  -2.74
        64   1      7263.25     90.25874  18.4020   0.0135    867.2843    346.6619     2.916     2.612  27.15
        65   1     704.9058     83.10322  20.9345   0.1280     86.2233    308.3838     1.279     0.996  87.87
        66   1     2329.455     119.0084  19.6366   0.0555    595.7621    327.8482     2.316     2.180 -36.78
        67   1     658.0234     80.63181  21.0092   0.1331    640.0057    323.0114     1.493     1.018  69.43
        68   1     779.7505     90.26125  20.8249   0.1257    643.4767    321.4943     1.843     0.825  50.10
        69   1     5580.223     95.48963  18.6882   0.0186    432.0928    355.9810     2.694     2.476  80.61
        70   1     470.9088     66.91938  21.3724   0.1543     93.1126    331.8545     1.157     0.864  72.97
        71   1     10808.84     97.58548  17.9703   0.0098    760.9850    368.6590     3.229     2.592 -48.40
        72   1     204.0485     51.67916  22.2804   0.2751   1546.5171    329.5132     1.090     0.500  -0.14
        73   1       347.59     55.21246  21.7021   0.1725   1440.3259    335.8877     1.151     0.720   8.40
        74   1     984.6124     76.33518  20.5716   0.0842     54.7275    349.9268     1.707     1.422 -33.05
        75   1     4066.953     92.18349  19.0316   0.0246    442.9427    367.4095     2.468     2.457  73.16
        76   1     50887.91     96.47336  16.2882   0.0021    231.5978    395.3917     3.045     2.976 -62.86
        77   1     1753.718     82.94075  19.9449   0.0514   1500.6577    361.4847     2.057     1.898 -19.24
        78   1     406.0155     61.01511  21.5334   0.1632   1034.1516    361.1364     1.358     0.944  63.30
        79   1      402.137     61.67476  21.5438   0.1666    533.7626    359.5301     1.324     0.535 -62.94
        80   1      227.066     44.68006  22.1644   0.2137   1415.3390    362.5314     0.920     0.473 -89.56
        81   1     1061.165     61.67476  20.4903   0.0631      1.9302    381.1294     2.381     0.903  89.15
        82   1     516.6102     65.90385  21.2719   0.1385    992.5557    372.8766     1.555     1.090 -78.52
        83   1     508.5281     65.90385  21.2890   0.1407     70.7653    372.0318     1.399     0.754 -55.38
        84   1     8338.778     90.55963  18.2520   0.0118    354.7326    398.3482     2.574     2.564  46.69
        85   1     6770.827     82.45142  18.4782   0.0132   1461.3718    397.4170     2.577     2.377 -31.94
        86   1     166.9764     35.22709  22.4981   0.2291    209.0098    370.0134     0.615     0.606  -0.68
        87   1     439.9702     61.67476  21.4462   0.1522   1084.1632    372.8884     1.030     0.665 -12.05
        88   1     45956.42     93.34673  16.3989   0.0022    433.5670    419.8457     2.911     2.899 -54.32
        89   1     1614.883     67.72084  20.0344   0.0455   1088.8979    393.9712     1.987     1.909 -52.36
        90   1     2070.049     82.28766  19.7648   0.0432      2.3713    412.5887     3.544     1.277  89.00
        91   1     21936.01      88.4498  17.2019   0.0044    837.5073    415.8865     2.795     2.687 -42.69
        92   1      271.745     54.72167  21.9694   0.2187     67.4952    382.1581     0.910     0.678 -36.04
        93   1     206.1029     36.39113  22.2696   0.1918      9.8583    383.7711     1.358     0.557  11.59
        94   1     644.5524     76.68777  21.0316   0.1292    626.1052    397.2685     1.385     0.808 -77.88
        95   1      3788.23     74.36607  19.1087   0.0213    926.5994    424.4074     2.411     2.207 -74.38
        96   1     16191.31     88.90612  17.5316   0.0060    252.3252    438.1793     2.790     2.705  -7.72
        97   1     144204.8     101.2487  15.1573   0.0008    807.6804    461.3314     3.178     3.081 -41.34
        98   1     1295.124     113.1995  20.2740   0.0949    159.3079    420.9558     2.158     1.705  43.28
        99   1     1225.857     84.86987  20.3337   0.0752   1422.1897    433.1000     1.816     1.716  69.53
       100   1     5672.178      102.309  18.6704   0.0196     21.4207    450.5894     2.486     2.460  29.10
       101   1     361.6232     57.60371  21.6591   0.1730   1180.0172    426.7534     1.461     0.792  34.23
       102   1     7781.688     186.1146  18.3271   0.0260    851.1541    468.1039     7.117     2.572  23.76
       103   1     689.1921     87.83768  20.9589   0.1384    150.7365    434.3987     1.835     1.044   5.03
       104   1     348.9613     50.89012  21.6978   0.1584    720.1688    431.0077     0.930     0.469  54.18
       105   1     1092.901     97.58548  20.4583   0.0970    122.5157    444.9543     1.881     1.549  59.24
       106   1     6294.542     94.92292  18.5574   0.0164     34.5368    457.9190     2.654     2.427 -17.68
       107   1     504.1871     58.76285  21.2983   0.1266    305.9941    440.3495     1.300     1.115   4.53
       108   1     666.3308     76.33518  20.9956   0.1244    885.2292    447.8613     1.961     1.221   1.04
       109   1      1763.74     79.28223  19.9387   0.0488    468.8448    463.9481     2.214     1.898  47.85
       110   1     527.6787     67.52136  21.2489   0.1390   1096.9908    461.4201     1.411     1.077  70.01
       111   1     199.9425     33.66065  22.3025   0.1828   1534.3280    452.3464     0.581     0.331 -45.75
       112   1     2734.067     69.68417  19.4628   0.0277    923.1714    478.1534     2.291     2.063 -42.86
       113   1     2036.418     67.52136  19.7826   0.0360    735.0540    472.2752     2.058     1.947  13.65
       114   1     1711.731     91.15347  19.9712   0.0578    254.7253    471.5919     1.980     1.869   9.05
       115   1     89.04712     22.63991  23.1807   0.2761   1227.3334    455.3133     0.568     0.338 -44.02
       116   1     5771.424     128.9105  18.6516   0.0243    782.9262    596.9890     3.615     3.453 -87.82
       117   1     1027.505     74.90823  20.5253   0.0792   1277.1139    478.5005     2.064     1.726 -65.71
       118   1     285.0431     46.74556  21.9175   0.1781    722.7952    462.3968     1.120     0.417 -12.80
       119   1     12910.09     95.63078  17.7775   0.0080   1303.0808    512.7224     3.397     2.606   1.00
       120   1     22038.28      184.367  17.1968   0.0091    519.0990    533.1533     4.785     4.361  25.24
       121   1     2887.437     146.9989  19.4035   0.0553     82.7940    495.6913     2.777     2.530 -76.01
       122   1     1031.808     63.40025  20.5208   0.0667   1070.6866    483.9861     1.908     1.620 -32.20
       123   1     2293.628     114.3849  19.6535   0.0542   1186.4955    495.7628     3.121     2.244 -10.67
       124   1     601.0212     84.71078  21.1076   0.1531    839.3377    489.6826     1.545     1.140  48.25
       125   1     501.9082     67.72084  21.3032   0.1465    863.7810    502.2021     1.826     1.368 -39.11
       126   1     1181.629     94.35281  20.3736   0.0867    763.2783    504.4456     2.324     1.464 -18.82
       127   1     3209.982     113.3186  19.2885   0.0383   1461.0349    515.7267     4.019     2.030  21.85
       128   1     210.3738     33.66065  22.2473   0.1738    366.3373    499.3254     0.576     0.334 -44.48
       129   1       330659     106.0635  14.2563   0.0003   1315.9587    588.2134     3.351     3.219 -42.43
       130   1     742.8499     87.06649  20.8775   0.1273    163.0072    510.5000     1.377     0.905 -31.60
       131   1     569.9327     68.31577  21.1652   0.1302    166.5013    509.5540     1.072     0.826  60.62
       132   1     272.8888     51.41749  21.9648   0.2046    454.2385    509.5146     0.978     0.719 -89.84
       133   1     625.1858     73.63697  21.0648   0.1279   1179.5034    513.6796     1.539     1.119   5.85
       134   1     373.9127     57.13346  21.6229   0.1659    642.8600    518.5699     1.255     0.759 -29.67
       135   1     1489.718     63.40025  20.1220   0.0462   1000.0333    540.5427     2.151     1.744 -48.23
       136   1     212.2686     40.23217  22.2376   0.2058    402.4881    536.4771     0.500     0.499 -37.00
       137   1     2150.646     66.31193  19.7234   0.0335   1041.8425    559.1711     2.139     1.954 -30.51
       138   1     6939.859     81.13211  18.4514   0.0127   1242.7992    572.9426     2.522     2.450 -27.79
       139   1     589185.2     110.3027  13.6292   0.0002    483.3755    631.4161     3.483     3.337 -44.03
       140   1     9702.464     90.26125  18.0876   0.0101    145.0090    580.9929     2.633     2.498 -71.13
       141   1     9636.118     84.71078  18.0950   0.0095    319.3545    582.3829     2.643     2.519 -38.03
       142   1     1779.618     92.47567  19.9290   0.0564     45.8489    571.4081     2.361     1.903  54.95
       143   1     64.26135      20.7758  23.5349   0.3511    143.9820    550.7809     0.655     0.414  -0.87
       144   1      1468.81     91.00538  20.1374   0.0673   1447.7355    571.8535     2.426     1.906  40.13
       145   1     849.5422     92.47567  20.7318   0.1182    139.1938    565.4221     1.745     0.805 -84.40
       146   1     1415.312     75.70512  20.1777   0.0581   1336.4686    575.3669     2.361     1.801 -61.19
       147   1     330.1871     61.67476  21.7579   0.2029   1002.5832    577.0038     1.329     1.013  -1.68
       148   1     627.1913     59.89957  21.0613   0.1037     75.8023    584.7218     1.554     1.136  73.68
       149   1     991.9878     56.65932  20.5635   0.0620    586.3757    605.4258     1.953     1.583 -89.35
       150   1     29656.48     93.34673  16.8745   0.0034    558.6801    985.2014     2.937     2.856 -34.53
       151   1     404.4142     46.97068  21.5377   0.1261    655.0228   1598.7227     1.480     1.007 -33.96
       152   1     215.6456     30.30628  22.2204   0.1526    652.7838   1595.9941     1.121     0.683 -22.73
       153   1     261.7971     35.60794  22.0099   0.1477     20.3169   1599.4045     1.692     0.641 -17.39
       154   1     262.5247     47.60335  22.0069   0.1969   1387.1508   1594.3894     0.757     0.441  19.77
       155   1     1134.348     64.24563  20.4179   0.0615   1108.8921   1584.9974     1.845     1.581  -5.70
       156   1     115.1669     25.44506  22.9015   0.2399   1068.7311   1585.4873     1.360     0.225  53.74
       157   1      1904.89     66.51503  19.8551   0.0379     22.0706   1566.8105     2.151     1.984  39.44
       158   1     1176.873     64.24563  20.3780   0.0593    784.5983   1565.8353     2.207     1.782  73.81
       159   1      59040.2      95.2067  16.1269   0.0018    487.7611   1558.1235     2.956     2.930 -84.10
       160   1     23579.58     147.9137  17.1234   0.0068    682.2031   1552.8148     4.833     4.349 -28.16
       161   1     701.5554     72.15668  20.9396   0.1117   1157.2614    860.5712     1.678     1.440  64.74
       162   1      464.101     64.45524  21.3883   0.1508   1339.6710    858.9348     1.493     1.142 -55.93
       163   1     1015.392     100.5804  20.5382   0.1076    326.1275    888.8391     1.643     1.358 -21.70
       164   1      188.324     42.51432  22.3675   0.2452    144.3609    857.8146     0.763     0.442 -72.36
       165   1     602.2133     58.91926  21.1054   0.1063   1206.7559    845.2385     1.556     1.285  81.58
       166   1     836.8947     86.60047  20.7481   0.1124   1064.4720    845.2845     1.499     1.313 -12.05
       167   1     1153.067     91.74347  20.4001   0.0864   1106.4135    843.5905     1.834     1.672  36.83
       168   1     2197.781     115.0903  19.6998   0.0569   1247.0173    838.0015     2.417     2.125 -49.58
       169   1     1663.726     100.9819  20.0021   0.0659    299.0053    836.8416     2.103     1.772 -59.74
       170   1     140.5798     33.66065  22.6850   0.2600   1521.6752    837.6497     0.581     0.331 -46.05
       171   1     230.4766     44.98094  22.1482   0.2119    819.3091    836.1196     0.916     0.679 -20.89
       172   1     6422.133     79.28223  18.5356   0.0134    654.5388    823.2621     2.488     2.416 -44.83
