#   1 KRON_RADIUS            Kron apertures in units of A or B                         
#   2 Y_IMAGE                Object position along y                                    [pixel]
#   3 MAG_BEST               Best of MAG_AUTO and MAG_ISOCOR                            [mag]
#   4 FLUX_BEST              Best of FLUX_AUTO and FLUX_ISOCOR                          [count]
#   5 X_IMAGE                Object position along x                                    [pixel]
#   6 THETA_IMAGE            Position angle (CCW/x)                                     [deg]
#   7 A_IMAGE                Profile RMS along major axis                               [pixel]
#   8 B_IMAGE                Profile RMS along minor axis                               [pixel]
#   9 MAGERR_BEST            RMS error for MAG_BEST                                     [mag]
#  10 NUMBER                 Running object number                                     
#  11 FLUXERR_BEST           RMS error for BEST flux                                    [count]
 3.87     54.0659  16.4715     42793.77     63.4899  10.31     5.081     4.648   0.0049          1     193.5732
 3.50     17.6085  18.6625     5688.312    984.8859 -88.11     4.180     1.842   0.0192          2     100.5567
 3.50     18.7843  19.1551     3613.886     91.0677 -71.47     1.673     1.595   0.0177          3     59.01929
 3.50     15.4372  18.0953     9590.932   1445.5699 -58.56     1.765     1.663   0.0071          4     62.36261
 8.71      7.7679  22.9264     112.0583   1469.4524 -68.75     0.745     0.449   0.4977          5     51.35972
 5.07      4.5796  21.6332     368.7478    145.2529  45.23     1.230     0.964   0.1616          6     54.86184
 7.04     10.4945  22.7223     135.2316   1183.4982  44.89     0.503     0.497   0.2723          7     33.90899
 3.50     60.5844  16.4119        45211   1078.2451  78.79     2.095     1.992   0.0018          8     73.32869
 7.80     14.3363  22.5816     153.9453    839.6812  45.80     0.572     0.336   0.2529          9     35.84818
 3.74     25.5083  20.8595     751.9423    367.0248 -44.59     1.386     1.224   0.0713         10     49.34483
 4.02     17.9750  21.8533     301.0895    384.0877  -6.22     1.065     0.750   0.1343         11     37.23637
 7.96     24.5876  21.2529     523.3929    383.1619  87.84     1.000     0.715   0.1433         12     69.05338
 7.77     35.5276  21.4411     440.1074   1110.5074  83.69     1.018     0.640   0.1598         13     64.75692
 6.92     34.3290  21.1030     600.9088    326.4467 -55.25     1.064     0.824   0.1212         14     67.06581
 5.72     38.8936  22.4559     172.8451   1521.2977  57.82     1.154     0.680   0.3268         15     52.01401
 3.50     40.2370  23.6564     57.20557   1226.1660 -45.15     0.973     0.347   0.3824         16     20.14494
 5.89     39.8462  22.0529      250.521   1170.4801  -0.96     0.941     0.732   0.2198         17     50.69699
 5.61     45.8528  21.5174     410.2556    440.1219 -39.18     1.403     1.002   0.1808         18     68.31482
 3.50     43.2798  22.2857      202.166    915.3459 -44.82     1.174     0.700   0.1711         19     31.85195
 3.50     80.9599  16.4502     43642.71    537.4124 -67.89     2.020     1.918   0.0018         20     71.22312
 6.55     51.1657  22.6552      143.849    265.9853  36.65     0.939     0.465   0.3429         21     45.41928
 6.43     51.0299  22.6036     150.8568   1435.2108 -33.32     0.788     0.497   0.2900         22     40.28988
 6.81     49.3377  24.2230     33.94641   1233.6754  45.58     0.575     0.334   0.9667         23     30.21741
 3.50     75.9613  20.1786      1407.82    127.6706  65.45     1.364     1.260   0.0359         24     46.52275
 5.74     82.8388  21.6722     355.7349    421.4473 -51.35     1.212     0.808   0.1793         25     58.73209
 4.96     91.5984  20.4556     1090.798    376.7576 -72.96     1.865     1.539   0.0861         26     86.45129
 3.50    122.5939  16.0190     64925.29    788.9185 -58.39     2.100     1.956   0.0012         27     72.86604
 3.56     97.3459  19.7013     2185.058     56.0111  -6.65     1.519     1.385   0.0266         28     53.61481
 6.17     92.9185  21.9584     273.3053    495.8493  75.14     1.341     0.684   0.2401         29     60.43482
 6.08     98.7694  20.9969     662.5784    452.5779 -24.86     1.703     0.981   0.1331         30     81.20685
 8.03    114.3488  22.4024     181.5624    270.3333 -45.61     0.584     0.329   0.2254         31     37.68773
 7.06    117.8673  22.1870     221.4041     66.8318  46.85     0.748     0.562   0.2317         32     47.24407
 6.06    118.7044  22.5852     153.4314    990.6282 -41.71     0.576     0.332   0.1974         33     27.88941
 8.26    118.5058  22.2516     208.6171    154.4909  45.33     0.502     0.498   0.2183         34     41.93504
 3.50    163.1394  16.6430     36541.68   1468.1359 -60.49     1.999     1.918   0.0021         35     70.02601
 5.15    132.4923  22.2749     204.2002    418.0414   0.53     0.805     0.500   0.1881         36     35.37335
 3.50    171.1355  18.2865     8042.434    877.1223 -68.19     1.765     1.708   0.0084         37     62.36261
 6.86    152.5081  22.4471     174.2369   1279.9960  -1.46     0.803     0.500   0.2712         38     43.51804
 3.58    165.8672  20.9505     691.4919   1445.5352  -0.27     1.320     1.134   0.0707         39     45.04546
 4.17    167.5935  21.0910     607.5846    104.3066 -28.86     1.173     1.010   0.0818         40     45.79006
 5.08    170.4301  21.7074     344.3938   1368.2188 -47.27     1.080     0.717   0.1456         41     46.15786
 5.71    169.4399  22.6642     142.6702    651.5150 -35.83     0.503     0.493   0.2257         42     29.65255
 4.38    181.2359  21.6681     357.0774    574.8821  23.27     1.275     0.773   0.1370         43     45.04546
 4.34    193.3881  20.6843     883.6082   1350.3932 -35.34     1.357     1.131   0.0682         44     55.47484
 8.45    186.9875  21.6462     364.3534   1354.0367 -74.12     0.796     0.783   0.2036         45     68.31482
 3.65    211.5628  18.9267      4459.94    827.4517  -6.95     3.903     1.922   0.0251         46     103.0481
 3.50    207.5028  20.0076     1648.005    548.9205 -81.19     1.547     1.367   0.0338         47     51.35972
 3.50    211.4505  21.3043      499.188    684.4575 -82.33     1.680     1.042   0.1066         48     49.00095
 3.50    212.9739  20.0539     1579.272   1305.9010  53.86     1.403     1.346   0.0332         49     48.30587
 4.26    231.0617  18.9106     4526.536    562.2328  -9.15     3.351     2.841   0.0324         50     135.1364
 3.50    204.4279  25.3930     11.55615   1498.4841 -36.26     0.505     0.489   1.8931         51     20.14494
 8.15    205.6816  22.9483     109.8196    937.0054 -28.40     0.896     0.214   0.3727         52     37.68773
 3.61    224.5214  19.9165     1792.308   1225.8654 -53.91     1.549     1.417   0.0334         53     55.16919
 3.50    260.5747  15.3608     119032.7    997.2193 -61.30     2.158     2.026   0.0007         54     74.47273
 3.50    266.7132  15.7519     83027.45     67.3777 -78.85     2.116     1.998   0.0010         55     73.55892
 3.50    223.2263  21.1144     594.5979    774.7523 -19.32     1.202     1.068   0.0751         56     41.12069
 7.24    219.2476  22.1279     233.7891    740.7269 -18.84     0.845     0.353   0.1891         57     40.70741
 4.29    244.2685  20.1985      1382.34    112.8207  77.16     2.123     1.544   0.0625         58     79.52362
 4.43    256.2211  19.0802     3871.997    612.7919 -37.89     2.500     1.801   0.0271         59     96.78661
 5.85    239.8068  21.0299     642.7726    838.5142 -15.30     1.259     0.961   0.1112         60      65.7931
 4.86    240.0475  23.0955     95.89661   1478.8186 -53.94     0.940     0.464   0.3725         61     32.89655
 6.94    251.4614  21.0210     648.0227    107.4959 -45.23     1.084     0.836   0.1145         62     68.31482
 6.35    252.5684  21.6679      357.151   1372.6412 -34.52     1.181     0.845   0.1323         63     43.51707
 3.50    288.3401  17.3379      19268.5   1486.2775 -54.62     1.867     1.775   0.0037         64      65.7931
 4.01    254.0000  22.8448     120.7993   1352.5071   0.00     1.051     0.289   0.2091         65     23.26137
 3.50    282.7326  19.0049      4149.73   1522.1934 -43.51     1.560     1.487   0.0145         66     55.47484
 6.90    271.2608  21.3269     488.9253   1273.5475 -11.09     1.161     0.926   0.1634         67     73.55892
 3.50    303.9948  17.6708     14179.49    201.5974 -73.98     1.829     1.713   0.0049         68     64.49528
 6.05    294.2973  20.5653     986.0244   1475.4902 -66.12     1.169     0.976   0.0736         69     66.81321
 3.50    302.8704  21.0094     655.0095    563.5295  64.72     1.317     1.259   0.0753         70     45.41928
 3.50    322.8517  18.1181     9392.183    697.1325 -67.45     1.711     1.657   0.0070         71     60.15438
 6.40    309.7060  21.1105     596.7592     85.4069 -81.45     1.983     0.885   0.1601         72     88.00211
 4.29    322.2261  20.7603     823.9301    641.0490 -74.76     2.205     1.229   0.0960         73     72.86604
 4.27    328.1181  19.9620     1718.673    595.2687 -49.81     1.622     1.556   0.0436         74     69.05338
 5.36    317.8036  22.8319     122.2526    226.3809 -71.76     0.752     0.447   0.2782         75     31.31658
 5.35    332.8581  21.4745     426.7582     93.4377  -7.83     1.068     0.836   0.1348         76      52.9803
 4.19    330.3325  22.0361     254.4257   1545.6162  -6.15     0.994     0.631   0.1426         77      33.4066
 3.50    350.8575  20.8600     751.6399     54.4747 -39.25     1.290     1.224   0.0645         78      44.6685
 5.14    348.6108  23.1519     91.03809     42.2829 -59.05     0.983     0.545   0.4705         79     39.44158
 3.50    368.9763  18.1071     9487.672    760.8814 -55.04     1.738     1.635   0.0069         80     59.87262
 3.50    362.0320  20.0383     1602.021   1500.1699  10.20     1.429     1.398   0.0341         81     50.36235
 3.50    396.0084  16.3489     47911.46    231.2756 -59.51     2.003     1.932   0.0016         82     70.02601
 3.50    361.5096  21.7003     346.6356   1033.6727 -46.62     1.047     0.903   0.1078         83     34.40403
 3.55    374.0851  21.6683     357.0242   1083.9071 -43.95     1.458     0.919   0.1288         84     42.33634
 6.13    369.9420  22.1811     222.6105    210.5096  87.58     0.786     0.499   0.1924         85     39.44158
 6.59    371.1455  21.7745     323.7435     71.4292 -16.36     1.204     0.716   0.2128         86     63.43791
 6.30    376.9420  20.7133     860.3275    753.8722  42.08     1.653     0.852   0.0974         87     77.14925
 3.50    397.8753  18.4937     6645.159   1461.0035 -57.52     1.678     1.607   0.0096         88     58.73209
 5.17    376.6144  22.8872     116.1819     86.3840  23.01     1.364     0.457   0.3920         89     41.93504
 3.50    398.9595  18.3671     7466.954    354.4040 -56.85     1.757     1.640   0.0090         90     61.81795
 5.97    380.9103  21.6973     347.5936    125.6369 -22.70     0.902     0.682   0.1520         91     48.65465
 3.50    394.4868  20.0773     1545.493   1088.6790 -16.48     1.485     1.357   0.0361         92     51.35972
 6.62    389.7516  22.3694     187.1799   1195.2408 -86.38     0.902     0.749   0.3271         93     56.38185
 6.59    390.2306  22.4785     169.2827    260.4030  71.18     0.744     0.452   0.2475         94     38.57462
 5.92    397.9349  21.0652     622.1948    626.5078  15.77     1.528     0.795   0.1179         95     67.56818
 7.14    415.6719  20.8515     757.5276      2.5615  28.95     1.141     0.754   0.0795         96     55.47484
 5.89    407.6978  22.1499     229.1067    281.6329 -82.40     1.007     0.467   0.2026         97     42.73387
 7.73    404.5130  21.5788      387.679    526.8869  -2.02     0.784     0.499   0.1401         98     50.02547
 3.50    461.8477  15.2042     137507.7    807.3699 -55.93     2.140     2.040   0.0006         99     75.59946
 7.26    413.7131  22.4958     166.5945   1562.2982 -60.78     1.155     0.451   0.3516        100     53.92928
 3.50    438.7642  17.5819     15390.29    251.9271 -54.88     1.813     1.728   0.0045        101     63.96878
 4.91    421.8596  20.6223     935.5372    158.7295  50.88     1.660     1.444   0.0908        102     78.23744
 0.00    412.6987  99.0000     -16.5282    199.3263  43.64     0.560     0.342  99.0000        103     25.34849
 6.30    419.4074  21.8209     310.2104   1203.2559   2.22     1.263     0.791   0.2276        104     65.01752
 9.11    415.3150  22.4823     168.6863    558.6299  42.87     0.584     0.328   0.2594        105     40.28988
 3.50    433.6354  20.4390     1107.611   1421.9039 -17.73     1.429     1.338   0.0490        106     50.02547
 6.72    427.7105  21.1863     556.5153   1179.3110  20.69     1.301     0.989   0.1527        107     78.23744
 5.64    420.6244  22.6192     148.7053   1579.7715  17.88     0.757     0.446   0.2476        108     33.90899
 6.59    424.9908  22.7396       133.09   1063.9623 -82.15     0.609     0.607   0.3288        109     40.28988
 6.86    431.8513  21.4067     454.2699    717.7710 -64.53     0.930     0.895   0.1554        110     65.01752
 5.00    434.9497  21.1293     586.5033    151.0015  25.47     1.154     0.980   0.1004        111     54.24191
 8.11    427.1310  21.5876      384.541    432.4409  -1.10     2.518     0.334   0.0815        112     28.86912
 7.74    427.6147  22.2824     202.7867    299.6916 -47.83     0.587     0.325   0.1869        113     34.89206
 4.33    468.5287  18.3605     7512.967    850.1567  22.24     7.405     1.888   0.0241        114     166.5261
 3.51    451.1122  18.8101     4965.527     21.1382 -39.37     1.703     1.572   0.0130        115      59.3051
 5.35    446.1109  20.6927     876.8668    122.1262 -32.70     1.653     1.204   0.0972        116     78.45327
 3.50    440.8153  21.1539     573.3552    305.5591 -50.73     1.189     1.082   0.0779        117     41.12069
 7.22    434.6680  23.0924     96.17285    353.3014  46.60     0.562     0.341   0.3597        118     31.85195
 3.50    458.6750  18.7361     5315.536     34.3958 -60.50     1.679     1.537   0.0119        119     58.15343
 5.39    444.1707  22.5608     156.9274    654.5854 -70.40     0.757     0.448   0.2277        120     32.89655
 7.52    444.6976  23.3044     79.11462    173.3044  44.88     0.551     0.345   0.4790        121     34.89206
 3.51    464.5992  19.9759     1696.862    468.4731 -73.90     1.596     1.441   0.0351        122     54.86184
 4.25    453.8175  22.2731     204.5363   1533.1399  37.40     0.789     0.678   0.1691        123     31.85195
 4.77    461.9124  21.0974      604.009   1096.1415  54.26     1.154     1.060   0.0986        124     54.86184
 3.50    472.0581  20.1761     1411.145    254.1115 -72.83     1.524     1.321   0.0393        125     51.02943
 5.24    462.3787  21.6434     365.2992    724.6503 -28.34     1.116     0.728   0.1415        126     47.60064
 7.33    457.6994  23.0617     98.92542   1223.6606 -43.04     0.565     0.339   0.3497        127     31.85195
 3.50    472.9619  19.7919     2010.277    734.7726 -38.59     1.496     1.347   0.0276        128     51.02943
 3.50    478.7603  19.4698     2704.482    922.8173 -35.32     1.542     1.446   0.0217        129     53.92928
 3.92    478.7928  20.4749     1071.607   1276.8333 -53.34     1.380     1.256   0.0537        130      52.9803
 4.35    476.5132  22.2841      202.464   1168.0372 -89.76     0.813     0.676   0.1765        131     32.89655
 3.50    484.9571  20.3777     1172.001   1070.4276 -66.11     1.365     1.226   0.0431        132     46.52275
 4.94    496.9649  19.4968     2637.936     82.5904  56.28     2.338     2.068   0.0462        133     112.1623
 5.47    489.7042  20.8758     740.7871    839.5638  81.89     1.979     0.873   0.1095        134     74.69944
 4.63    481.6934  22.5554     157.7031   1309.1306  71.28     0.894     0.694   0.2656        135     38.57462
 3.61    479.8593  22.5658     156.1986    682.6146  17.68     1.030     0.720   0.2177        136     31.31658
 3.88    496.4434  19.7556     2078.594   1186.7407 -14.15     2.923     1.792   0.0476        137     91.02452
 4.18    531.9177  17.9040     11439.04    519.0345  19.57     4.599     2.664   0.0123        138     129.1257
 5.97    481.6788  22.5057     165.0844   1520.4889  -0.10     0.921     0.467   0.2650        139     40.28988
 3.55    505.2574  20.5038     1043.453    763.0582  35.35     1.785     1.613   0.0652        140     62.63316
 3.50    516.2610  19.3159     3116.199   1461.0070  24.27     4.360     1.650   0.0337        141     96.78661
 3.50    502.7141  21.1376     582.0223    863.5473  86.71     1.246     1.113   0.0805        142     43.12774
 3.50    498.6335  22.0463     252.0544    366.2104 -49.90     1.014     0.951   0.1524        143     35.37335
 3.50    514.5807  20.9672     680.9673   1179.1083 -56.81     1.339     1.067   0.0669        144     41.93504
 5.57    510.5956  20.6680     896.9968    164.3583  -2.33     2.204     1.004   0.1032        145     85.26967
 4.31    520.2776  21.3276     488.6021    641.3948 -72.01     1.257     0.919   0.1066        146     47.95455
 8.43    511.4783  22.3070     198.2361    453.4845  44.06     0.503     0.496   0.2297        147     41.93504
 3.50    519.1761  22.3770     185.8701   1518.8835  43.19     0.828     0.669   0.1557        148     26.64925
 4.34    541.0017  20.0403     1599.084    999.7307 -58.22     1.570     1.410   0.0452        149     66.55965
 4.08    536.7367  21.8065     314.3445    404.4981  50.90     1.364     0.752   0.1463        150     42.33634
 6.50    545.6520  22.0907     241.9451    933.8276  70.97     1.235     0.753   0.2930        151     65.27707
 3.67    559.8237  19.6794     2229.619   1041.5420 -18.80     1.576     1.487   0.0287        152     59.01929
 4.48    597.4241  18.5511     6303.433    782.7071 -83.49     3.546     3.355   0.0275        153     159.4719
 4.22    571.6400  20.0154     1636.241     45.6350  59.09     1.992     1.404   0.0485        154     73.09773
 4.23    556.2178  22.7008     137.9426    778.7784  45.56     0.804     0.683   0.2508        155     31.85195
 3.50    581.4234  18.1479      9138.03    144.8262 -85.18     1.779     1.649   0.0072        156     60.99184
 3.50    572.2887  20.0828     1537.683   1448.0997  21.34     2.785     1.717   0.0559        157     79.09722
 3.95    565.5809  21.5432     400.6226    139.6900 -53.99     1.148     1.009   0.1169        158     43.12774
 3.50    582.9966  18.1537     9088.894    318.9901 -38.33     1.741     1.676   0.0073        159     60.99184
 6.39    563.6564  26.0569     6.269409    905.5596   5.49     1.049     0.627   9.3417        160     53.92928
 6.81    576.9733  21.2879     506.7882   1001.5247 -66.98     1.399     1.121   0.1898        161     88.57667
 3.50    585.4980  21.1092     597.5002     75.9934  34.12     1.282     1.160   0.0805        162     44.28833
 7.52    579.6700  22.7696     129.4629    740.6813 -45.55     0.569     0.338   0.2844        163     33.90899
 5.26   1004.8461  24.3421     30.41968   1237.8387  49.76     0.764     0.567   1.2798        164     35.84818
 4.64   1597.9813  20.8069     789.3198    655.1420 -30.36     1.787     1.341   0.0858        165     62.36261
 5.62   1595.9124  21.4195     448.9523    374.0342  41.13     1.272     1.258   0.1658        166     68.56189
 6.89   1594.0922  21.4107     452.5887   1384.9442 -19.49     1.473     0.518   0.1477        167     61.54381
 6.99   1592.8507  22.1451     230.1132    567.1038  41.77     0.836     0.671   0.2560        168     54.24191
 3.50   1586.8704  22.7950     126.4705   1069.2076 -26.32     0.977     0.733   0.2642        169      30.7719
