#   1 KRON_RADIUS            Kron apertures in units of A or B                         
#   2 Y_IMAGE                Object position along y                                    [pixel]
#   3 MAG_BEST               Best of MAG_AUTO and MAG_ISOCOR                            [mag]
#   4 FLUX_BEST              Best of FLUX_AUTO and FLUX_ISOCOR                          [count]
#   5 X_IMAGE                Object position along x                                    [pixel]
#   6 THETA_IMAGE            Position angle (CCW/x)                                     [deg]
#   7 A_IMAGE                Profile RMS along major axis                               [pixel]
#   8 B_IMAGE                Profile RMS along minor axis                               [pixel]
#   9 MAGERR_BEST            RMS error for MAG_BEST                                     [mag]
#  10 NUMBER                 Running object number                                     
#  11 FLUXERR_BEST           RMS error for BEST flux                                    [count]
 4.06     54.7854  16.4435     43914.41     63.6141  10.86     5.365     4.865   0.0050          1     201.5104
 4.05     18.2135  18.6049     5998.522    984.9620 -89.85     4.237     2.095   0.0212          2     116.8546
 4.10     19.4714  19.1069      3777.64     91.2174 -50.22     1.811     1.786   0.0205          3      71.2709
 3.50     16.2576  18.0600     9908.686   1445.6405  10.92     2.069     1.951   0.0075          4     68.27317
 5.88      5.8206  21.8108     313.0895    145.2245  -0.38     1.171     0.700   0.1779          5     51.27777
 3.50     61.4063  16.3867     46272.46   1078.3906  60.70     2.429     2.331   0.0019          6     80.15064
 7.15     11.4045  22.7429     132.6925   1183.2152  19.09     0.760     0.448   0.3257          7     39.79474
 6.20     19.1504  21.3994     457.3475    384.5094   6.20     1.294     0.940   0.1563          8     65.82211
 6.18     26.2150  20.4772     1069.383    366.8643  22.57     1.520     1.277   0.0846          9     83.25911
 8.14     25.4828  21.2632     518.4623    382.6798  34.64     1.089     0.824   0.1553         10     74.14753
 6.45     36.5190  21.2788     511.0732   1110.6578 -49.38     1.297     0.966   0.1483         11     69.78813
 6.19     34.8937  21.0066     656.7109    326.7797  -6.17     1.759     1.173   0.1424         12     86.08225
 3.50     81.5333  16.4209     44838.73    537.4374  -8.76     2.426     2.341   0.0019         13     80.15064
 6.56     40.7101  22.0956     240.8672   1170.5583  40.85     1.270     0.507   0.2312         14     51.27777
 5.84     40.0144  22.3060     198.4198   1521.2733  85.98     0.741     0.661   0.2239         15     40.90551
 5.97     44.3194  21.8209     310.1873    915.1635 -57.45     1.037     0.830   0.1904         16     54.38829
 8.83     45.6943  21.9950     264.2521    440.3448  43.14     0.570     0.337   0.1556         17     37.87114
 3.86     76.6940  20.0304     1613.812    128.1458 -36.54     1.719     1.565   0.0413         18     61.35826
 6.39     91.3040  20.1175     1489.374    376.7011  59.93     2.277     1.590   0.0860         19     117.9997
 5.62     84.3886  21.3718     469.1313    421.1944 -71.75     1.543     1.097   0.1640         20     70.85042
 3.50    123.3941  15.9909      66624.7    788.9817   1.93     2.491     2.407   0.0013         21     82.53824
 4.29     98.1545  19.5785     2446.714     56.0174  -2.94     1.876     1.626   0.0320         22     72.10451
 6.22     99.8760  20.8488     759.4427    452.8296  11.32     1.469     1.252   0.1165         23     81.44497
 5.77     92.9685  22.0460     252.1201    495.7600  -1.84     0.890     0.757   0.1970         24     45.73375
 7.44    118.7651  22.0388     253.7947    990.2153  56.24     0.770     0.712   0.2280         25     53.27821
 7.94    118.3204  22.5365      160.478    415.3350 -44.33     0.572     0.336   0.2340         26     34.57146
 3.50    163.8909  16.6171     37424.28   1468.2533 -12.36     2.297     2.242   0.0022         27      76.5272
 8.54    132.4837  21.8745     295.2595    418.0073   0.90     0.791     0.500   0.1886         28     51.27777
 3.62    171.7659  18.2351      8432.44    877.2239 -65.04     2.104     2.045   0.0094         29     73.13316
 5.02    152.7571  22.7889     127.1841   1280.5729  70.56     0.724     0.458   0.2334         30     27.33114
 3.53    167.9653  21.0182     649.6814    104.0224 -78.63     1.477     1.352   0.0807         31     48.27642
 6.26    166.7164  20.5190     1028.929   1445.8735  25.87     1.481     1.385   0.0916         32     86.77369
 6.54    161.5322  22.8948     115.3698    634.5322  45.00     0.509     0.489   0.2911         33     30.92166
 6.44    170.4764  21.6294     370.0237   1368.4977   1.76     0.962     0.894   0.1728         34     58.87308
 6.49    170.4273  22.6540     144.0183    651.2307  19.56     0.769     0.448   0.2703         35     35.84446
 7.24    181.4357  21.1847     557.3643    575.3188  32.57     1.271     0.859   0.1429         36     73.33715
 5.24    194.1731  20.4702     1076.236   1350.5505 -52.42     1.469     1.346   0.0721         37     71.48021
 6.58    188.1913  21.4022     456.1799   1354.9642  38.80     1.031     0.844   0.1420         38     59.62951
 4.47    212.4319  18.8224     4909.677    827.3854 -12.54     4.254     2.183   0.0291         39     131.7576
 4.70    208.1951  19.8500     1905.542    548.9749 -54.46     1.677     1.562   0.0423         40     74.14753
 3.50    213.7668  20.0120     1641.307   1306.0121  -5.55     1.672     1.540   0.0358         41      54.1129
 5.56    232.0003  18.7985     5018.733    561.9341 -29.94     3.527     3.152   0.0389         42     179.5554
 3.50    267.4318  15.7213     85407.44     67.5887   4.05     2.519     2.455   0.0011         43     85.03456
 5.22    212.3623  20.9965     662.8021    684.2392 -21.57     1.588     1.414   0.1244         44     75.93927
 3.50    261.3217  15.3325     122175.5    997.3779 -21.97     2.507     2.488   0.0008         45     85.21007
 3.57    225.6275  19.8827     1848.934   1226.0277  56.39     1.639     1.513   0.0323         46     54.93492
 4.82    224.2253  20.8392     766.1893    774.7047 -64.76     1.485     1.273   0.0910         47     64.21365
 5.37    245.7519  20.0355     1606.204    112.9574 -84.19     2.268     1.820   0.0712         48      105.287
 4.73    256.7946  18.9831     4234.057    612.8154 -30.55     2.748     2.239   0.0292         49     113.7449
 6.37    240.4774  20.7540     828.7078    838.2289  -1.00     1.566     1.476   0.1226         50     93.56676
 6.42    253.0003  21.3651      472.011   1372.7172 -71.85     1.388     1.020   0.1093         51      47.5113
 7.14    251.7136  21.5685     391.3829    107.6560 -47.45     1.285     0.961   0.1384         52     49.88655
 3.50    289.1075  17.3036     19886.21   1486.3608   1.53     2.188     2.127   0.0040         53     73.54058
 7.65    254.4976  23.1732     89.27378   1352.0000  31.85     0.805     0.311   0.2629         54     21.61358
 3.60    283.4612  18.9534     4351.633   1522.2333  52.35     1.853     1.816   0.0160         55     63.98056
 8.02    266.9816  22.2967     200.1364    123.0000  90.00     0.858     0.289   0.2159         56     39.79474
 6.63    272.2898  21.4194     449.0004   1273.7919   3.53     1.216     0.928   0.1657         57     68.49165
 3.50    304.5837  17.6310     14709.49    201.6434   9.84     2.209     2.162   0.0054         58     73.74345
 5.28    294.7334  20.7134     860.3027   1475.5226 -23.87     1.490     1.372   0.0646         59     51.17493
 4.40    303.5009  20.7957     797.5055    563.4193 -19.54     1.662     1.501   0.0918         60     67.39219
 3.50    323.5641  18.0650     9862.725    697.2144  48.95     2.098     2.084   0.0078         61     70.85042
 8.21    294.2909  22.3938      183.016    247.3220 -43.16     0.553     0.344   0.2051         62     34.57146
 8.21    309.9417  21.3590     474.6814     85.7309 -48.00     1.182     0.645   0.1582         63     69.14293
 5.55    322.5255  20.5557     994.7417    641.3193  77.65     1.952     1.534   0.1022         64     93.56676
 5.15    328.8730  19.7925     2009.028    595.4155 -35.20     1.939     1.713   0.0494         65      91.4675
 5.86    331.2283  21.6348     368.1904   1545.7670  43.51     1.148     0.833   0.1644         66     55.74481
 6.09    333.6950  21.3919     460.4973     93.5791  55.69     0.971     0.940   0.1346         67      57.0691
 5.25    351.3244  20.7062     866.0291     54.6837  61.37     1.405     1.282   0.0856         68     68.27317
 3.68    369.6347  18.0463      10033.8    760.9844  20.92     2.099     2.041   0.0080         69     73.74345
 3.50    396.6434  16.3154     49412.54    231.3520 -26.42     2.431     2.344   0.0018         70     80.52258
 4.58    362.7214  19.8649     1879.492   1500.1469   1.09     1.885     1.588   0.0443         71     76.72218
 6.58    362.1609  21.2429     528.2524   1033.3594 -58.97     1.241     0.995   0.1452         72     70.63924
 6.42    376.5254  20.9650     682.3496    753.3805  48.83     1.997     1.131   0.1032         73     64.86794
 5.64    381.7092  21.3685     470.5461      1.5745 -88.36     2.138     0.633   0.1217         74      52.7144
 5.73    375.3517  21.3688      470.392   1083.9893 -64.08     1.453     1.092   0.1616         75     70.00188
 6.92    371.3849  21.6613     359.3232     72.0737  -4.98     1.328     0.618   0.1810         76     59.87953
 7.68    370.4340  22.3149      196.813    209.7979 -20.41     0.757     0.448   0.2413         77     43.72983
 3.50    399.6176  18.3321      7712.03    354.4628  17.25     2.015     1.927   0.0094         78     66.94735
 3.50    398.5452  18.4648     6824.548   1461.0853  -1.85     1.953     1.880   0.0102         79     64.21365
 5.48    384.9274  21.9067     286.6364     67.2584  84.64     1.574     0.663   0.2040         80     53.83611
 5.96    376.7703  22.8669     118.3716     87.0265   1.14     0.694     0.420   0.2792         81     30.43467
 6.77    382.1244  21.5823     386.4497    125.8206 -25.56     0.976     0.759   0.1618         82     57.59029
 4.02    395.3357  20.0436     1594.245   1088.6277  16.79     1.645     1.542   0.0421         83     61.84332
 7.53    397.2801  20.8724      743.082    626.6414 -84.29     1.368     1.024   0.1263         84     86.42866
 6.06    413.7102  20.4543      1092.14      1.9376  88.84     2.794     0.912   0.0763         85     76.72218
 5.80    390.9907  22.9752     107.1351   1196.0000  90.00     0.849     0.289   0.2657         86     26.21511
 7.06    405.4550  21.1350     583.4613    526.5231  81.85     1.415     0.997   0.1516         87     81.44497
 3.50    462.6592  15.1786     140785.3    807.5481 -14.75     2.549     2.471   0.0007         88     85.73444
 3.50    439.4121  17.5403     15990.98    252.0300   6.63     2.198     2.152   0.0050         89     73.94577
 6.39    408.1780  21.7623     327.3906    281.9645  29.19     1.164     0.805   0.1961         90      59.1263
 5.73    422.2335  20.5652     986.1296    159.3221  51.63     1.823     1.388   0.0978         91      88.8157
 6.58    427.0642  21.8358     305.9601    299.6302  84.40     1.385     0.613   0.2081         92     58.61877
 7.34    419.4577  21.9331     279.7343   1204.3013  -8.30     1.015     0.481   0.1957         93     50.39614
 7.02    428.1476  21.1415     579.9823   1179.8237  43.93     1.268     1.091   0.1501         94     80.15064
 4.39    434.3699  20.3900     1158.811   1421.9888 -10.82     1.560     1.399   0.0474         95     50.58348
 8.46    424.2213  21.7102     343.5005    133.4180  71.45     0.751     0.455   0.1507         96     47.65348
 5.96    421.4902  22.5524     158.1381   1580.9540   2.68     0.778     0.499   0.2490         97     36.25886
 8.25    421.6680  22.1736     224.1598    136.3273  45.21     0.574     0.335   0.1716         98     35.42521
 7.29    425.5192  22.6367     146.3292   1063.4724  46.62     0.503     0.496   0.2691         99     36.25886
 8.39    431.2661  21.4004     456.9133    718.8472  67.24     1.078     0.508   0.1429        100     60.12851
 6.61    428.4362  21.1412     580.0967    432.8666  -1.42     3.052     0.580   0.1044        101     55.76923
 4.77    469.1457  18.3006      7938.55    850.1890  21.91     7.491     2.172   0.0255        102     186.7339
 4.02    451.8686  18.7113     5438.413     21.3246   5.41     2.100     1.955   0.0156        103     78.26448
 5.98    435.1284  20.9923     665.3905    151.0912  52.00     1.240     1.134   0.1125        104     68.92652
 5.40    441.5390  21.0512      630.259    305.5747 -51.09     1.441     1.138   0.1157        105     67.17014
 5.43    446.8850  20.5949     959.4952    122.1028  85.16     1.505     1.355   0.0848        106     74.94915
 6.24    435.6659  23.2964     79.69617    353.6778 -45.54     0.573     0.336   0.3798        107     27.87241
 3.92    459.3049  18.6652     5674.504     34.4913 -43.25     1.983     1.870   0.0140        108     73.13316
 8.32    445.0175  21.9059      286.843    654.3727 -25.27     1.075     0.452   0.2121        109     56.01217
 3.68    465.1302  19.9576     1725.711    468.4329  46.31     1.735     1.537   0.0369        110     58.61877
 5.36    454.5111  21.8445     303.5167   1533.5862   2.60     0.992     0.775   0.1613        111     45.07568
 3.85    462.4621  21.1003     602.3914   1096.4276  13.24     1.424     1.022   0.0819        112      45.4059
 6.23    454.6659  23.1967      87.3606   1224.3201  45.65     0.572     0.336   0.3465        113     27.87241
 4.18    473.5636  19.6925     2203.021    734.7416 -32.28     1.675     1.672   0.0337        114     68.27317
 7.77    463.4885  21.6930     348.9734    723.9955 -62.96     1.225     0.497   0.1879        115     60.37647
 4.28    473.0175  20.0984     1515.854    254.3179   2.68     1.614     1.461   0.0458        116     63.98056
 3.50    479.3950  19.4342     2794.534    922.8692  50.14     1.739     1.690   0.0225        117     57.84912
 4.18    479.2153  20.3960      1152.38   1276.8652  88.29     1.667     1.470   0.0599        118     63.51184
 6.15    468.1647  22.5096     164.5048   1198.3262 -25.50     0.748     0.647   0.2748        119     41.62955
 4.99    489.4695  20.9210     710.5446    839.3799 -85.63     2.556     0.978   0.1179        120     77.11064
 5.00    497.6219  19.5204     2581.281     82.7204 -14.39     2.586     2.443   0.0513        121     121.8614
 4.48    497.1443  19.6564     2277.488   1186.5587 -19.24     2.871     2.197   0.0519        122     108.7766
 5.27    477.6234  22.0369      254.238   1167.6362 -32.52     1.409     0.553   0.1925        123     45.07568
 3.50    485.5691  20.3580     1193.487   1070.7618 -13.29     1.529     1.376   0.0450        124     49.49881
 3.50    480.5318  22.3640     188.1018    682.5682 -19.27     0.922     0.768   0.1700        125     29.43654
 4.19    532.4379  17.6784     14081.81    518.7012  17.05     4.773     2.905   0.0095        126     123.4961
 5.92    483.2268  22.7026     137.7115   1309.2524  17.63     0.842     0.349   0.2400        127     30.43467
 7.04    490.9982  22.6861     139.8119    424.4974  57.39     0.783     0.319   0.2617        128     33.69609
 4.88    505.6880  20.3554     1196.333    762.6530  29.68     1.866     1.696   0.0767        129     84.50584
 6.07    499.2487  21.6681     357.0848    366.5008  48.61     1.260     0.822   0.1821        130     59.87953
 3.50    503.6251  21.1169     593.2792    863.6788  17.99     1.349     1.193   0.0775        131     42.34122
 4.09    516.8408  19.2872     3199.887   1461.1042  25.64     3.620     1.834   0.0348        132     102.4098
 6.42    511.4173  20.4877     1059.068    164.7969  15.76     2.143     1.304   0.1072        133     104.5751
 3.50    504.0078  22.7857     127.5563    442.7247 -86.66     0.742     0.697   0.2029        134     23.82674
 3.88    515.1553  20.9169     713.2787   1179.1432 -11.58     1.351     1.290   0.0758        135     49.79971
 3.70    520.8367  21.3182     492.8778    642.2778   1.63     1.390     1.164   0.1008        136     45.73375
 7.78    522.2990  21.9920     264.9821    854.1040 -68.91     0.955     0.691   0.2495        137     60.86934
 6.15    519.8758  22.0628     248.2488   1519.3197  20.54     0.920     0.674   0.2071        138     47.33893
 3.50    541.7062  20.0765     1546.695    999.6561 -28.16     1.600     1.510   0.0364        139      51.8572
 5.95    537.3939  21.5100     413.0502    404.2004  25.92     1.629     0.795   0.1731        140     65.82211
 3.50    560.4191  19.6608      2268.22   1041.6516  18.47     1.867     1.613   0.0283        141      59.1263
 4.94    572.7739  19.9561     1728.081     45.8521  54.85     2.131     1.762   0.0586        142     93.24687
 3.50    573.2246  20.0512     1583.195   1448.4399  29.55     2.441     1.841   0.0495        143     72.10451
 3.56    583.6990  18.1052     9503.973    319.1047  10.28     2.100     2.028   0.0081        144     70.85042
 3.50    582.1724  18.1111     9452.537    144.8971   4.15     2.088     1.978   0.0080        145     69.57373
 6.41    557.7811  22.5427     159.5599    778.6027  72.66     0.764     0.454   0.2440        146     35.84446
 4.04    598.1440  18.5667     6213.509    782.6210 -52.42     3.563     3.261   0.0233        147     133.2236
 5.76    566.2109  21.3619     473.4124    139.6721 -56.27     1.261     1.043   0.1468        148     63.98056
 6.78    568.5834  22.7326     133.9603    633.2251 -19.07     0.738     0.455   0.3038        149     37.47458
 6.26    578.0512  21.4316      443.959   1001.7804 -28.13     1.682     0.817   0.1728        150     70.63924
 5.30    586.1544  20.8939      728.525     75.9674  -8.76     1.328     1.229   0.0978        151     65.59474
 3.95   1002.9375  19.4679      2709.14    542.3767  41.74     1.957     1.741   0.0282        152     70.42743
 4.10   1598.2117  20.8707     744.2545    654.3484  -3.12     1.918     1.218   0.0786        153     53.83611
 3.70   1595.8204  21.5193     409.5385    373.5580  36.47     1.480     1.018   0.1195        154     45.07568
 6.34   1594.4935  21.3310     487.0614   1384.2332 -29.70     1.436     0.913   0.1556        155     69.78813
 4.80   1586.2162  20.3626     1188.409   1108.5291  10.82     1.709     1.419   0.0663        156     72.51772
 4.54   1567.9301  19.6499     2291.167     21.5654   3.80     1.823     1.751   0.0370        157     78.07336
 5.33   1567.0110  19.9973     1663.689    784.3434 -85.86     2.030     1.671   0.0620        158     94.99292
 5.50   1529.7546  22.6384     146.0934    733.4183 -70.72     0.745     0.453   0.2334        159     31.40109
 6.53   1516.6896  21.0480     632.0991   1546.3409 -54.01     1.328     1.063   0.1288        160     74.94915
 3.50   1508.4398  16.8126     31257.42    269.0288   0.55     2.425     2.347   0.0028        161     81.81102
 3.50    878.8604  21.5184     409.8723    960.9188 -38.71     1.204     1.126   0.1054        162     39.79474
 6.82    880.5679  22.3669     187.6002    670.7686  20.31     0.733     0.453   0.2169        163     37.47458
 8.15    878.4954  22.0811      244.097    542.0081   1.12     0.795     0.500   0.2255        164     50.69172
 3.76    870.8542  19.5677     2471.326   1103.3297 -62.93     2.030     2.002   0.0322        165     73.33715
 4.19    868.9675  20.6145     942.3175    939.8438  48.58     1.862     1.435   0.0769        166     66.72382
 6.09    870.7626  22.4830     168.5779    643.2283 -45.21     0.935     0.438   0.2440        167     37.87114
 7.86    868.9410  22.7440     132.5518    454.3015  62.52     0.908     0.211   0.2797        168     34.13659
 3.50    861.9903  22.8149     124.1742   1554.1732 -54.13     0.917     0.472   0.2028        169     23.19124
