#   1 KRON_RADIUS            Kron apertures in units of A or B                         
#   2 MAGERR_APER            RMS error vector for fixed aperture mag.                   [mag]
#   3 Y_IMAGE                Object position along y                                    [pixel]
#   4 X_IMAGE                Object position along x                                    [pixel]
#   5 THETA_IMAGE            Position angle (CCW/x)                                     [deg]
#   6 FLUX_APER              Flux vector within fixed circular aperture(s)              [count]
#   7 A_IMAGE                Profile RMS along major axis                               [pixel]
#   8 B_IMAGE                Profile RMS along minor axis                               [pixel]
#   9 FLUX_RADIUS            Fraction-of-light radii                                    [pixel]
#  10 FLUXERR_APER           RMS error vector for aperture flux(es)                     [count]
#  11 MAG_APER               Fixed aperture magnitude vector                            [mag]
#  12 NUMBER                 Running object number                                     
 3.50   0.0002    181.0222   1105.8365 -40.31     909969.9     6.539     5.885      9.517     137.5308  13.1524          1
 3.68   0.0058     52.4050     61.7681  -2.27     25561.59     6.359     5.786     15.849     137.5464  17.0310          2
 3.50   0.0035     58.9521   1076.9418  81.32     42092.17     2.093     1.972      5.283     137.4997  16.4895          3
 3.50   0.0363     15.7237    983.4587 -87.90     4110.651     4.509     1.979      8.715     137.4686  19.0152          4
 3.50   0.0422     17.0120     89.4810 -42.63     3539.676     1.663     1.619      4.679     137.5464  19.1776          5
 3.50   0.0164     13.8143   1444.2383 -42.28     9136.348     1.721     1.697      4.657     137.5619  18.1481          6
 3.64   0.7463     16.2665    382.9738  86.43     200.1189     1.231     1.191      3.487     137.5308  22.2968          7
 4.95   0.9148     13.1674    839.5089 -76.27     163.1748     1.479     0.949      6.485      137.453  22.5184          8
 3.64  99.0000      9.2333   1182.3411 -70.45     -68.6543     1.026     0.964      2.668     137.5464  99.0000          9
 4.21  99.0000      5.6605   1467.9125   8.54    -104.2177     1.152     0.903      2.484     130.3748  99.0000         10
 4.51   0.4147      3.6078    143.2684  59.55      313.155     1.696     1.490      6.300     119.5713  21.8106         11
 5.88   0.3652      3.6479    183.5916 -38.45     356.5522     1.080     0.962      5.657      119.893  21.6697         12
 6.99  99.0000      2.5114    843.4935  44.82    -14.87356     0.507     0.493      3.041      112.376  99.0000         13
 6.37   0.5466      1.8622    302.3619  20.33     214.3566     0.906     0.677      5.436      107.888  22.2222         14
 3.91   0.2441     23.8545    365.4416  -3.18     611.6426     1.390     1.345      4.746     137.4997  21.0838         15
 0.00  99.0000     14.8386   1561.6169 -19.92    -150.5703     0.905     0.686     -4.694     137.5619  99.0000         16
 4.67  99.0000     17.1879   1213.4882  -0.33    -98.57616     0.921     0.725      2.937     137.5308  99.0000         17
 0.00   1.2104     15.4944    192.9995 -32.51     123.3421     0.786     0.318      0.000     137.4686  22.8222         18
 4.18   0.3465     33.0747   1108.5681  65.68     430.9472     2.036     1.213      5.271     137.4841  21.4639         19
 3.82   1.1780     23.0219    381.4543   6.25     126.8329     1.319     1.170      4.460     137.5775  22.7919         20
 5.46  99.0000     22.9778    696.8055  -3.26    -86.22621     0.886     0.748      1.999     137.4997  99.0000         21
 0.00  99.0000     20.6041    212.2110 -18.94    -77.67971     0.744     0.450      4.465      137.453  99.0000         22
 0.00   0.5127     23.9324   1451.8411 -46.75     291.3084     0.843     0.652      0.000     137.5153  21.8891         23
 4.88   0.3102     32.3874    325.0325 -26.40     481.5577     1.486     1.262      5.062     137.5308  21.3434         24
 0.00   7.8781     26.2151    701.0262  -0.99     18.95653     0.703     0.411     -1.415     137.5153  24.8556         25
 6.50   1.1025     33.5743     14.7714 -89.15     135.4758     0.947     0.712      3.968     137.5308  22.7203         26
 3.57   1.6926     37.0450   1519.9745 -74.77     88.27402     1.093     1.076      2.298     137.5775  23.1854         27
 4.28   0.3710     38.0067   1169.0526  23.11     402.8028     1.223     1.198      4.898     137.6241  21.5373         28
 3.71   0.5479     41.6028    913.7512 -64.32     272.7413     1.133     1.039      3.970     137.6086  21.9606         29
 3.50   0.0037     79.0617    535.8607 -66.40     40183.47     1.966     1.931      5.261     137.4841  16.5399         30
 4.97   1.7972     43.5270    438.5287 -52.86     83.01984     1.481     1.242      2.171     137.3907  23.2520         31
 4.10   1.7149     38.6270   1224.5396 -37.16      87.1034     1.156     0.777      3.244     137.5464  23.1999         32
 4.55   1.2959     49.4868    263.5109  89.83     115.1656     1.455     1.089      2.668     137.4219  22.8967         33
 4.50  13.0071     41.5007    999.9727  -1.62     11.47378     0.790     0.500      2.254     137.4219  25.4007         34
 7.08   1.1215     42.5779    226.7772  19.95     133.1625     0.748     0.450      4.490     137.5153  22.7390         35
 7.84   0.8720     45.7927    473.3825 -71.71     171.1957     0.746     0.449      3.986     137.4686  22.4663         36
 4.11   2.1844     49.4914   1433.9777  -4.26     68.34311     1.069     0.925      2.020     137.4686  23.4633         37
 0.00  99.0000     46.7959   1429.1587  44.33    -331.0814     0.809     0.669      4.852     137.5619  99.0000         38
 5.94   1.4345     46.8517    664.8470 -43.30     104.1453     0.825     0.669      3.658     137.5619  23.0059         39
 6.42   1.0216     50.4846    119.9498   0.88       146.12     0.780     0.500      4.017      137.453  22.6382         40
 3.52   0.0956     74.1052    126.4799 -19.14     1561.378     1.475     1.433      4.230     137.4063  20.0662         41
 7.34   0.6107     57.4917   1240.0228 -32.67     244.4449     0.781     0.319      4.687     137.4686  22.0795         42
 4.98   3.0422     64.9824   1146.2659   9.37     49.10138     1.374     1.141      1.594     137.5464  23.8223         43
 7.06   0.5504     68.4563     17.7707  88.90     271.4025     0.996     0.721      4.888     137.5619  21.9660         44
 0.00  99.0000     66.8790   1414.1798 -28.14    -118.6236     0.963     0.744   -106.922     137.5308  99.0000         45
 0.00  99.0000     65.5014   1514.5054 -45.69    -241.2955     0.501     0.499      0.000     137.3596  99.0000         46
 0.00  99.0000     70.7447   1320.8502 -68.46    -160.6283     0.911     0.682      5.468     137.5153  99.0000         47
 3.50   0.0025    120.9251    787.4896 -59.16     60186.46     2.018     1.992      5.253     137.4063  16.1013         48
 3.90   0.4988     81.3288    419.7149 -76.83     299.1722     1.520     1.278      3.629     137.4063  21.8602         49
 3.94   0.2106     89.6612    375.3916 -19.36     709.5739     2.301     2.014      7.666     137.6086  20.9225         50
 8.71   0.7604     75.8810     80.4187 -26.69     196.4531     1.370     0.840      8.220     137.5464  22.3169         51
 4.79   1.3457     78.7909   1031.8494 -33.64     111.0271     0.892     0.849      4.403     137.5775  22.9364         52
 3.50   0.0006    192.5951    316.2862 -64.39     255801.9     2.878     2.293      5.868     137.4997  14.5302         53
 3.50   0.0711     95.5876     54.3806 -29.57     2100.294     1.614     1.584      4.637     137.4841  19.7443         54
 0.00  99.0000     87.0195   1358.1309 -88.30    -215.0625     0.995     0.847   -204.024      137.593  99.0000         55
 5.84   0.6557     87.4903    757.1628  35.83     227.6303     1.165     1.017      6.609     137.4374  22.1569         56
 6.63   1.1236     82.9746    930.8279  20.66     132.9343     1.160     0.723      3.583     137.5308  22.7409         57
 6.93   1.9132     86.4810    862.1655 -47.77      78.0478     1.108     0.733      3.366     137.4997  23.3191         58
 6.86   1.5545     85.0348   1559.2076  52.97     96.08352     0.930     0.470      2.242     137.5308  23.0934         59
 6.00   1.2820     90.8526   1043.8802  55.00     116.4086     1.397     0.799      5.125     137.4219  22.8850         60
 3.82   0.3482     90.7001    494.0876   0.64     428.3977     1.105     1.019      2.829      137.344  21.4704         61
 4.28   0.3903     97.1019    451.1805 -12.65     382.4008     1.924     1.255      5.587     137.4374  21.5937         62
 5.06   0.4805     94.6267   1074.8350  39.51     310.8576     1.336     1.126      5.713     137.5308  21.8186         63
 7.44  99.0000     85.3500    923.3128 -46.64     -168.684     0.575     0.334      1.155     137.4374  99.0000         64
 0.00  99.0000     87.8495    810.6924 -59.25    -56.16894     0.869     0.590      0.000     137.4219  99.0000         65
 6.33   9.5449     94.0801    387.5246  89.88     15.64093     0.774     0.499      3.748     137.4686  25.0643         66
 4.03   0.0064    233.9082    401.8713 -47.20     23441.38     8.632     7.090     22.276     137.4219  17.1250         67
 6.55   0.5289    101.8555    517.3245  20.24     282.2452     0.933     0.683      5.600      137.453  21.9234         68
 5.90   0.5877    112.7964    268.6332  80.50     254.1784     1.522     1.118      4.594     137.5464  22.0372         69
 4.71   2.1145    107.3404    861.3599  41.75     70.63661     0.979     0.859      5.595     137.5308  23.4274         70
 6.49   0.4402    106.1678   1098.1515 -41.98     339.3582     0.806     0.676      4.257     137.5619  21.7234         71
 0.00  99.0000    106.9845   1420.9861 -44.46    -109.3873     0.881     0.534     -0.299     137.5153  99.0000         72
 7.78   1.1089    106.4694    180.4571 -48.20     134.6089     0.503     0.495      1.832      137.453  22.7273         73
 5.35   0.9630    114.2177    414.3000 -75.12     154.9858     1.174     0.927      3.266     137.4374  22.5743         74
 0.00  99.0000    109.9821   1513.4705   1.43    -381.9824     0.806     0.687      4.839     137.5775  99.0000         75
 3.50   3.8890    116.1276    989.3898 -72.21     38.41819     1.139     0.958      5.665     137.5775  24.0887         76
 4.15  99.0000    116.6369    152.4058  53.02     -111.631     1.006     0.952      2.649     137.5308  99.0000         77
 5.52   0.3390    116.3723     65.2133   7.35     440.6431     1.480     0.950      7.298     137.5308  21.4398         78
 3.50   0.0044    161.4548   1466.8241 -54.44     33822.84     1.934     1.900      5.053     137.5775  16.7270         79
 5.02   0.6282    125.2403    492.5927  -6.86     237.8002     1.464     1.092      5.914     137.5464  22.1095         80
 0.00   3.7940    117.6457    911.6918 -47.04     39.33087     0.575     0.334      0.000     137.4063  24.0632         81
 4.68   0.4490    130.2387    416.2955 -27.12       332.37     1.014     0.997      4.298     137.4063  21.7459         82
 4.35  99.0000    127.1574   1476.9080  43.78    -40.66606     0.822     0.651      3.969     137.3907  99.0000         83
 5.12   0.5700    128.0846    884.0657 -58.07     261.7828     0.780     0.779      4.113     137.4063  22.0051         84
 5.84   0.6034    141.3550    884.3093  52.16     247.3198     2.131     0.964      5.944     137.4219  22.0669         85
 8.30   0.9776    134.6447     97.6783 -46.36     152.6893     0.581     0.330      3.489      137.453  22.5905         86
 5.23   2.6583    145.7969    352.2505 -48.50     56.21772     1.407     1.153      7.202     137.6086  23.6753         87
 0.00  99.0000    138.1987   1599.6450 -72.96    -15.45237     0.752     0.444      4.510     104.0517  99.0000         88
 3.50   0.0195    169.2841    875.6372 -78.34     7674.871     1.768     1.723      5.008     137.4997  18.3373         89
 3.99  99.0000    150.7436   1278.8497  28.32    -68.21358     1.078     1.029      3.827     137.4997  99.0000         90
 4.29   0.3275    164.2198   1444.2903  61.79     455.9114     1.450     1.305      5.281     137.4997  21.4028         91
 3.87   1.0243    154.5441     80.6298 -48.01     145.8547     1.066     0.917      3.426     137.5619  22.6402         92
 6.00  99.0000    155.1815   1578.5652   5.70    -197.8996     0.898     0.727      1.040     137.5308  99.0000         93
 0.00  99.0000    154.5055    822.5117  46.03    -86.12572     0.501     0.498      0.000     137.3752  99.0000         94
 3.50   0.3343    165.7383    102.5978 -37.77     447.0784     1.311     1.165      3.739     137.6086  21.4240         95
 0.00  99.0000    165.0086    574.7706  86.48    -5.700733     1.251     0.963      0.793     137.5308  99.0000         96
 7.70   0.3391    165.8022   1054.6754 -60.40     440.5015     1.211     1.000      7.269     137.5619  21.4401         97
 8.26   0.7588    159.3821    491.2143  17.93     196.8147     0.756     0.448      3.240     137.5153  22.3149         98
 0.00   4.3835    164.3577   1196.5062  18.24     34.03844     0.945     0.817      0.000     137.3907  24.2201         99
 4.96   1.3447    167.8831    649.7219  36.86     110.9979     1.237     1.028      7.421     137.4374  22.9367        100
 5.03   1.8519    168.4620   1367.5079  -4.70     80.61386     1.259     0.968      2.983     137.4686  23.2840        101
 6.77   0.6254    174.8292   1198.9620 -74.73     238.8358     1.100     0.850      5.655     137.5464  22.1048        102
 4.54   0.3276    179.3327    573.3319  24.33     455.5987     1.714     1.330      4.337     137.4219  21.4035        103
 5.66   1.2941    185.8885   1353.4348 -69.02     115.3768     1.580     1.377      2.458     137.4841  22.8947        104
 4.12   0.2105    191.7545   1349.0994  -8.69     708.5701     1.394     1.366      4.367     137.3596  20.9240        105
 6.94   0.3868    189.5625   1026.0391  51.22     386.3188     1.298     1.107      7.785     137.5775  21.5826        106
 8.39  99.0000    182.3929     58.7790 -19.01    -218.4602     0.766     0.444      3.976     137.4997  99.0000        107
 3.61   0.0450    209.8589    826.0873  -7.87     3316.948     4.937     2.269     10.790      137.453  19.2482        108
 3.95   0.0564    229.0334    560.6039 -26.64     2647.986     3.951     3.606     10.893     137.5464  19.4927        109
 0.00  99.0000    186.4370    834.3389  -8.75    -110.6243     0.995     0.478      3.425     137.5308  99.0000        110
 5.73   0.5558    194.2279    266.1493  -2.74     268.7809     1.598     1.112      4.155     137.5619  21.9765        111
 3.50   0.0013    258.9285    995.8074 -39.84     113333.5     2.157     2.062      5.357     137.5775  15.4141        112
 5.33   0.1590    207.8602    348.2912  42.92     938.6866     2.172     1.551      8.729     137.4374  20.6187        113
 3.50   0.0910    205.7459    547.4401  30.29     1641.525     1.440     1.435      4.674     137.4997  20.0119        114
 7.23   0.8108    193.8830   1158.3497  19.93     184.1066     0.901     0.693      2.530      137.453  22.3873        115
 4.67   0.3745    202.5069    249.0628 -82.07     398.5854     1.245     1.125      5.322      137.453  21.5487        116
 6.30   0.7701    195.0164    447.8040  -1.57     193.8468     0.905     0.757      4.427     137.4686  22.3314        117
 3.50   0.1092    211.3949   1304.6354 -22.74     1367.827     1.484     1.447      4.302     137.5308  20.2099        118
 3.50   0.0019    264.9597     65.7597 -32.49     76829.68     2.095     2.035      5.389     137.5775  15.8362        119
 4.14   0.5800    209.9293    683.1187 -66.62     257.3205     1.588     1.287      4.349     137.4219  22.0238        120
 5.97  99.0000    205.0531    940.3129  79.60    -21.77141     0.730     0.683      3.146     137.4219  99.0000        121
 6.18   7.8123    204.7234    935.2993 -17.45     19.09678     1.044     0.660      6.262     137.3752  24.8476        122
 5.76   0.9258    204.9661    182.0299 -44.92     161.3318     0.793     0.788      2.241     137.5308  22.5307        123
 6.06   0.1290    221.6865    344.0318  25.49     1157.348     2.076     1.969     10.567     137.5153  20.3913        124
 3.64   3.7248    208.3053   1224.1161  17.48     40.04424     1.017     0.915      3.567      137.344  24.0436        125
 3.50   0.0894    223.2675   1224.5825 -89.29     1671.133     1.447     1.430      3.730     137.5619  19.9925        126
 6.36   3.2987    216.6158    881.3004 -56.94     45.25682     1.809     0.740      0.180     137.4686  23.9108        127
 6.23   0.4780    216.7369    739.7720 -48.77     312.4753     1.484     1.052      5.748     137.5308  21.8130        128
 3.50   0.0005    311.2113    437.7717 -43.93     313287.1     2.528     2.337      5.771     137.5464  14.3101        129
 3.50   0.4524    221.6353    773.3149 -28.64     330.1292     1.304     1.232      3.676     137.5153  21.7533        130
 7.25  99.0000    213.9205    791.8632 -44.17    -19.60363     0.851     0.667      2.720     137.4219  99.0000        131
 8.64   0.3236    220.8395    373.6221  32.45     461.6127     1.683     0.981      7.171     137.5464  21.3893        132
 7.72   0.6497    226.6158    323.3230 -86.04     229.9335     1.792     0.855      9.808     137.5619  22.1460        133
 4.09   0.1178    243.0104    111.1028 -84.61     1267.408     2.358     1.744      5.485      137.453  20.2927        134
 4.02   0.0472    254.5417    611.2194 -43.66     3166.972     2.738     2.260      6.867     137.5619  19.2984        135
 0.00  99.0000    220.6618   1401.3055  46.61    -279.0021     0.567     0.338      0.000     137.4374  99.0000        136
 6.32   0.6048    229.1916    546.3879 -64.50     246.7958     1.265     1.034      6.534      137.453  22.0692        137
 4.00   0.3243    238.3424    837.3022  -9.76      460.132     1.711     1.461      6.267     137.4063  21.3928        138
 3.60  99.0000    232.0458   1551.7197 -75.01    -120.6234     0.719     0.670      0.823      137.453  99.0000        139
 5.39  99.0000    238.9705   1477.4504 -68.12    -79.57638     1.289     0.924      1.000     137.5619  99.0000        140
 5.53   0.2659    251.0242   1371.4264  88.51     561.7942     1.875     1.660      4.542     137.5308  21.1761        141
 5.00   0.4374    249.4536    105.7782 -15.15     341.5218     1.367     1.268      6.435     137.5619  21.7165        142
 6.38   3.9854    247.8134   1412.9871  26.31     37.46408     1.222     0.976      1.111     137.4841  24.1160        143
 3.56  99.0000    252.4222   1351.3031 -18.77    -13.91923     1.077     1.070      3.588      137.453  99.0000        144
 4.93   0.9166    248.0549    561.1425 -45.10     162.8686     0.823     0.656      3.615     137.4686  22.5204        145
 0.00  99.0000    250.4485   1549.2814 -84.04      -306.29     0.998     0.957      0.000      137.453  99.0000        146
 3.50   0.0084    286.7189   1484.9951 -39.03     17760.78     1.874     1.841      4.879     137.5153  17.4263        147
 6.17   0.7632    248.9496    149.9729  73.74     195.7499     0.793     0.788      1.343     137.5619  22.3207        148
 6.83  99.0000    252.4687    693.5012  40.35    -52.97215     0.503     0.496      2.522      137.453  99.0000        149
 3.50   0.0403    281.0660   1520.9102  76.99     3708.601     1.639     1.588      4.682     137.4686  19.1270        150
 6.41   0.4264    264.1126    722.8807 -57.13     349.9769     1.243     0.947      4.416     137.4219  21.6899        151
 3.50   0.0005    350.4285    889.1489 -49.01     277271.2     2.387     2.221      5.611     137.5619  14.4427        152
 3.50   0.0028    317.8304    903.7720 -63.35     53022.32     2.038     1.981      5.274     137.5464  16.2389        153
