#   1 KRON_RADIUS            Kron apertures in units of A or B                         
#   2 MAGERR_APER            RMS error vector for fixed aperture mag.                   [mag]
#   3 Y_IMAGE                Object position along y                                    [pixel]
#   4 X_IMAGE                Object position along x                                    [pixel]
#   5 THETA_IMAGE            Position angle (CCW/x)                                     [deg]
#   6 FLUX_APER              Flux vector within fixed circular aperture(s)              [count]
#   7 A_IMAGE                Profile RMS along major axis                               [pixel]
#   8 B_IMAGE                Profile RMS along minor axis                               [pixel]
#   9 FLUX_RADIUS            Fraction-of-light radii                                    [pixel]
#  10 FLUXERR_APER           RMS error vector for aperture flux(es)                     [count]
#  11 MAG_APER               Fixed aperture magnitude vector                            [mag]
#  12 NUMBER                 Running object number                                     
 4.66   0.0006     53.3701     63.9065   0.33     147595.8     5.346     4.847     16.199     83.74603  15.1273          1
 4.79   0.0038     16.7161    985.4154 -86.84     24149.42     3.984     2.201      8.764     83.80292  17.0927          2
 5.07   0.0045     18.1894     91.5415  86.21     20265.75     2.215     2.110      5.685     83.83134  17.2831          3
 3.50   0.0017     14.9013   1446.0841 -41.38     52672.67     2.448     2.348      4.695     83.68911  16.2460          4
 3.50   0.0004     60.0040   1078.7539 -68.39     238701.5     2.944     2.936      5.042     83.83134  14.6054          5
 7.01   0.0208     25.0118    367.4980 -87.68      4373.47     1.484     1.238      5.204     83.73655  18.9479          6
 3.50   0.0000    182.2392   1107.8169 -37.57      2372452     4.759     4.425      9.601     83.81239  12.1120          7
 8.46   0.0348     34.7508   1109.7596  72.02     2611.556     0.859     0.352      4.560     83.80292  19.5078          8
 3.50   0.0004     80.3017    537.8538 -63.57     229553.9     2.884     2.811      5.053     83.69859  14.6478          9
 5.64   0.0107     75.2082    128.0785   7.55     8476.551     1.848     1.579      4.895     83.80292  18.2295         10
 3.50   0.0003    122.0068    789.4358 -48.27     341518.2     3.024     2.920      5.006     83.79344  14.2165         11
 5.48   0.0072     96.8864     56.4073 -71.89     12654.12     1.997     1.926      5.896     83.77448  17.7944         12
 7.78   0.0196     90.1377    376.6794 -84.05      4647.96     1.663     0.811      5.791     83.72706  18.8818         13
 3.50   0.0001    193.6548    318.2545 -64.86      1461984     3.604     3.206      5.089     83.78396  12.6376         14
 8.31   0.0322     98.4899    452.9708   1.55     2821.153     0.801     0.500      4.803     83.75552  19.4239         15
 3.50   0.0005    162.6065   1468.6003 -48.91     194007.8     2.857     2.740      4.887     83.74603  14.8305         16
 4.30   0.0021    170.5437    877.6212 -24.83     43435.01     2.450     2.384      5.201     83.81239  16.4554         17
 4.81   0.0007    234.9494    403.9689 -40.42     134824.6     6.462     5.517     20.859     83.81239  15.2256         18
 7.66   0.0325    166.7667    104.6338 -51.15     2803.821     1.190     0.814      4.196     83.82187  19.4306         19
 7.78   0.0208    165.0963   1446.3479 -19.74     4364.472     0.931     0.682      4.843     83.70808  18.9502         20
 7.36   0.0159    192.8807   1350.2953 -39.52     5710.286     1.495     1.122      8.417     83.70808  18.6584         21
 5.87   0.0050    211.0185    828.4678  -4.65     18249.65     3.453     2.315     11.627     83.81239  17.3969         22
 5.29   0.0100    206.7520    549.3409 -45.49     9110.672     1.916     1.730      4.684       83.765  18.1511         23
 4.92   0.0099    212.4464   1306.3748 -86.34     9183.175     1.854     1.649      4.621     83.82187  18.1425         24
 6.31   0.0057    230.1041    562.0859 -34.65     16077.72     3.211     2.625     12.464     83.68911  17.5344         25
 7.04   0.0150    209.0439    349.7184   5.59     6045.271     2.056     1.260      9.084     83.74603  18.5965         26
 3.50   0.0002    260.0271    997.7144 -32.96     592471.9     3.108     3.027      5.009     83.77448  13.6183         27
 4.71   0.0087    224.0652   1226.2837 -20.72     10429.35     1.857     1.718      4.334     83.72706  18.0044         28
 9.06   0.0342    210.5037    683.9939 -32.35     2659.806     0.790     0.316      3.191       83.765  19.4879         29
 8.20   0.0196    221.4668    346.4656  46.51     4628.914     1.425     1.262      8.548     83.72706  18.8863         30
 3.50   0.0002    266.0551     67.7294 -46.53     437369.2     3.069     2.956      5.028     83.74603  13.9479         31
 6.58   0.0256    223.0545    774.9872  32.06     3556.741     1.233     1.218      4.293     83.82187  19.1724         32
 7.21   0.0134    243.5259    113.3848 -72.38      6810.02     2.132     1.609     10.166     83.84082  18.4671         33
 5.38   0.0052    255.5203    613.4874 -34.80     17375.58     2.722     2.229      8.656     83.71758  17.4502         34
 3.50   0.0001    312.5810    439.6433 -46.91      1721138     3.341     3.242      5.242     83.79344  12.4605         35
 8.45   0.0306    239.0145    838.5069  88.39     2968.255     0.800     0.500      4.092       83.765  19.3687         36
 3.55   0.0009    287.8746   1486.6700 -37.53     103786.1     2.729     2.624      4.837     83.71758  15.5097         37
 3.54   0.0039    282.1709   1522.5713 -57.11     23212.48     2.237     2.131      4.607     83.79344  17.1357         38
 3.67   0.0012    303.2971    201.9391 -62.46      75578.2     2.638     2.559      5.007     83.72706  15.8540         39
 3.50   0.0003    318.9419    905.7490 -50.05     298765.6     2.960     2.898      5.038       83.765  14.3617         40
 5.86   0.0103    290.0642    515.4205 -43.74     8818.427     1.859     1.703      5.676     83.81239  18.1865         41
 3.50   0.0001    351.6704    891.0421 -42.49      1571821     3.363     3.241      5.109     83.77448  12.5590         42
 5.18   0.0092    294.2253   1327.8463 -64.99     9922.999     1.811     1.691      4.821     83.82187  18.0584         43
 3.50   0.0001    351.7484   1346.0500 -36.39      1492528     3.313     3.171      5.029     83.82187  12.6152         44
 8.32   0.0188    297.8438   1414.4490 -85.07     4851.067     1.301     0.486      5.079     83.80292  18.8354         45
 3.71   0.0018    322.2881    697.4871 -25.38     50328.32     2.435     2.390      4.758     83.71758  16.2955         46
 6.51   0.0214    303.0039    563.4498  87.15     4256.991     1.162     0.981      4.949     83.84082  18.9772         47
 6.06   0.0095    327.7697    595.6106 -71.53     9534.239     1.974     1.918      7.672     83.81239  18.1018         48
 4.92   0.0026    346.6015    867.2303  18.69     34785.64     2.861     2.381      8.174     83.75552  16.6965         49
 8.53   0.0232    323.2297    640.0140  -0.59     3917.963     0.698     0.421      3.834     83.82187  19.0673         50
 4.76   0.0033    356.0260    432.0794  87.11     27971.06     2.496     2.332      6.981     83.78396  16.9332         51
 4.17   0.0018    368.3613    761.2231 -35.81     51865.52     2.615     2.420      5.179     83.80292  16.2628         52
 6.36   0.0186    350.1034     54.6538 -21.73     4878.664     1.382     1.164      4.637     83.72706  18.8292         53
 4.87   0.0046    367.4929    442.9348 -35.45     19845.45     2.199     2.160      5.426     83.75552  17.3058         54
 4.78   0.0096    361.4933   1500.6189 -39.83     9428.659     1.812     1.670      5.013     83.77448  18.1139         55
 3.50   0.0004    395.3764    231.6054 -61.83       254045     2.946     2.880      5.041     83.78396  14.5377         56
 7.80   0.0373    361.1692   1034.1797  42.65     2437.736     0.767     0.572      4.133     83.77448  19.5825         57
 5.65   0.0694    381.0497      1.7524  88.80     1020.561     2.135     0.727      5.963     65.24786  20.5279         58
 8.06   0.0301    372.7130    992.8636 -66.61     3019.447     0.965     0.672      4.191     83.73655  19.3502         59
 4.12   0.0022    398.3277    354.7166   5.68      41290.4     2.419     2.381      4.907     83.71758  16.5104         60
 3.64   0.0025    397.4610   1461.3257 -23.83     36427.97     2.404     2.266      4.682     83.75552  16.6464         61
 3.50   0.0004    419.8367    433.5835 -58.69     232054.3     2.834     2.817      5.022     83.81239  14.6360         62
 3.51   0.0008    415.8958    837.5114 -48.18     112145.6     2.714     2.631      4.835     83.68911  15.4255         63
 3.84   0.0105    393.8893   1088.9030 -24.19     8695.972     1.829     1.746      4.336     83.68911  18.2017         64
 5.52   0.0541    412.5150      2.1003  89.26     1339.208     3.144     1.055      8.364     66.66882  20.2329         65
 8.72   0.0253    398.0094    626.0000  90.00     3595.091     0.853     0.289      4.010     83.74603  19.1607         66
 3.50   0.0001    461.3327    807.6813 -41.80     719819.8     3.125     3.024      4.868     83.72706  13.4069         67
 3.93   0.0045    424.4247    926.5838 -73.49     20120.61     2.218     2.075      4.785     83.77448  17.2909         68
 3.54   0.0011    438.2094    252.3092 -22.94     82639.62     2.667     2.585      5.034     83.75552  15.7570         69
 7.96   0.0191    421.4103    159.0942  66.35     4767.673     1.299     1.123      6.416     83.75552  18.8542         70
 4.92   0.0136    433.2141   1422.2384  75.75     6699.734     1.587     1.455      4.664     83.81239  18.4849         71
 4.58   0.0035    450.5570     21.3708 -80.62     26343.15     2.283     2.197      5.639     83.82187  16.9983         72
 4.48   0.0031    457.9465     34.5625 -25.31     29582.91     2.433     2.277      5.039     83.79344  16.8724         73
 5.57   0.0042    467.9408    850.8246  23.70      21714.6     6.481     2.304     19.282     83.82187  17.2081         74
 9.10   0.0349    434.5980    150.8039  18.87     2608.206     0.771     0.446      4.059       83.765  19.5091         75
 6.79   0.0328    440.1227    306.1780 -32.48     2773.733     1.137     0.800      4.063     83.79344  19.4423         76
 7.63   0.0213    445.2960    122.4233  33.99      4261.13     1.291     0.942      5.786       83.765  18.9762         77
 8.37   0.0216    447.9803    885.2001  17.76     4213.603     1.345     0.552      6.725     83.78396  18.9884         78
 4.64   0.0097    463.8789    468.8594  55.78     9355.027     1.963     1.724      5.171     83.75552  18.1224         79
 4.62   0.0077    472.3755    735.0891  25.44     11742.89     1.930     1.809      4.769       83.765  17.8756         80
 5.75   0.0109    471.6077    254.6995  85.35      8356.59     1.743     1.651      5.331     83.74603  18.2449         81
 7.46   0.0290    461.1063   1097.1104  75.57     3136.514     0.975     0.702      4.961     83.70808  19.3089         82
 3.93   0.0060    478.1623    923.1752 -38.12      15123.2     2.130     1.850      4.550     83.80292  17.6009         83
 5.27   0.0157    478.3757   1277.2144 -76.28      5794.25     1.623     1.316      4.819     83.77448  18.6425         84
 4.68   0.0143    484.0925   1070.7201 -63.60      6375.31     1.691     1.476      4.301     83.73655  18.5387         85
 6.81   0.0083    495.7200     82.9163 -84.39     10918.43     2.354     1.996      8.757     83.73655  17.9546         86
 5.93   0.0083    495.9522   1186.4457  -9.05     10974.26     2.797     1.785      8.940     83.82187  17.9491         87
 4.76   0.0012    533.2038    519.0621  37.98     75178.16     4.396     3.915     14.656     83.84082  15.8598         88
 3.71   0.0014    512.7703   1302.9841   1.53     64877.26     3.214     2.410      6.121     83.81239  16.0198         89
 7.82   0.0139    504.2839    762.8732 -18.39     6562.504     1.322     1.098      6.836     83.72706  18.5073         90
 6.13   0.0226    502.7135    863.6923  -7.41     4028.383     1.318     0.852      4.246     83.70808  19.0372         91
 4.70   0.0068    515.7469   1461.2188  20.18     13361.45     3.707     1.729     10.119     83.81239  17.7354         92
 7.98   0.0258    509.8079    166.5956  70.58      3523.96     0.763     0.446      4.001     83.77448  19.1824         93
 8.01   0.0709    509.5138    454.4899 -44.65     1282.174     0.503     0.496      3.021     83.71758  20.2801         94
 8.05   0.0232    513.6719   1179.6215  13.08     3928.917     1.164     0.603      4.537     83.83134  19.0643         95
 3.50   0.0001    588.1991   1315.9669 -38.53      1608212     3.254     3.137      4.932     83.77448  12.5341         96
 8.59   0.0319    518.5825    643.1854 -19.40     2848.531     0.773     0.446      4.635     83.78396  19.4134         97
 3.93   0.0100    540.4721   1000.0886 -46.92     9089.998     1.999     1.628      4.586     83.72706  18.1536         98
 4.56   0.0073    559.1486   1041.7238 -49.55     12396.45     1.905     1.756      4.762     83.72706  17.8168         99
 3.87   0.0025    572.9556   1242.8220 -28.33     36845.95     2.382     2.281      4.967     83.80292  16.6340        100
 3.50   0.0000    631.4180    483.3808 -44.31      2481747     3.471     3.329      5.415     83.78396  12.0631        101
 4.00   0.0018    580.9852    144.9868 -62.85     49633.03     2.482     2.376      4.942     83.78396  16.3106        102
 5.98   0.0108    571.3608     45.9273  64.65     8407.461     2.063     1.660      6.424     83.77448  18.2383        103
 3.88   0.0018    582.3660    319.3436 -29.95     49546.95     2.531     2.405      4.975     83.80292  16.3125        104
 6.00   0.0106    571.9494   1447.6144  45.99     8602.615     1.879     1.528      6.979     83.81239  18.2134        105
 4.89   0.0039    596.9901    782.7942  84.19     23522.88     3.294     3.137     10.315     83.75552  17.1213        106
 7.19   0.0129    575.0060   1336.7366 -69.33     7058.197     1.694     1.614     10.161     83.83134  18.4283        107
 6.96   0.0272    584.8660     75.8078  79.67     3353.124     1.095     0.859      4.093     83.84082  19.2364        108
 4.47   0.0157   1001.7277   1555.5181 -34.07      5804.11     1.504     1.278      4.033     83.71758  18.6407        109
 8.60   0.0151   1598.7208    655.0220  -1.97     4862.104     0.741     0.679      4.445     67.54467  18.8329        110
 5.55   0.0123   1565.9288    784.8401  77.23     7392.934     1.810     1.476      5.764     83.78396  18.3780        111
 3.50   0.0003   1558.1409    487.7713 -79.67     297903.2     2.884     2.853      4.927     83.81239  14.3648        112
 5.16   0.0204    886.1887   1500.2479 -31.93     4459.008     1.475     1.194      4.310     83.81239  18.9269        113
 6.66   0.0148    877.9839   1177.5114 -16.81     6141.672     1.390     1.207      7.055     83.77448  18.5793        114
 3.50   0.0001    859.6315   1224.5569 -40.22      1485232     3.278     3.133      4.916     83.82187  12.6205        115
 6.45   0.0179    868.6469    939.6868  10.70     5093.279     1.646     0.960      6.084     83.75552  18.7825        116
 6.52   0.0204    860.1113   1157.0590  81.66     4463.938     1.303     0.900      4.375     83.73655  18.9257        117
 8.81   0.0236    859.0093   1339.4808 -89.34     3862.127     0.801     0.500      4.304     83.77448  19.0829        118
 4.62   0.0066    869.8472   1103.8760 -38.57     13702.49     2.090     1.909      6.171     83.74603  17.7080        119
 6.04   0.0151    843.8174   1106.2993  23.41     6014.278     1.522     1.174      5.375     83.75552  18.6020        120
 7.61   0.0331    845.0912   1064.6450  19.49     2749.857     0.955     0.682      4.589     83.72706  19.4517        121
 5.90   0.0089    838.1814   1246.9702 -20.17     10219.29     1.978     1.742      8.811     83.79344  18.0264        122
 5.51   0.0122    836.7602    298.9550 -65.05     7459.391     1.834     1.556      5.073     83.79344  18.3682        123
 3.69   0.0027    823.2612    654.5356 -35.60     33590.36     2.359     2.282      4.811     83.74603  16.7345        124
 3.67   0.0029    803.4128   1378.7422 -54.00        30865     2.300     2.183      4.689     83.81239  16.8263        125
 3.50   0.0010    798.7738    695.8101 -84.75     88379.27     3.076     2.543      5.994     83.78396  15.6841        126
 5.04   0.0063    800.9283     41.3083 -29.45     14321.22     2.080     1.919      5.235     83.73655  17.6600        127
 5.20   0.0071    774.6801   1427.5056 -73.06     12879.64     2.432     2.040      8.383     83.72706  17.7752        128
 6.16   0.0132    766.9759    392.1918  19.80     6916.869     1.712     1.448      5.660     83.78396  18.4502        129
 4.96   0.0117    742.9076    556.5101 -23.97     7775.705     1.705     1.658      4.773     83.70808  18.3232        130
 3.50   0.0000    724.3961    405.0894 -41.01      1932010     3.434     3.279      5.208     83.75552  12.3350        131
 7.44   0.0288    738.0159   1157.9910 -44.70     3156.333     0.909     0.532      3.491     83.74603  19.3020        132
 6.06   0.0291    736.1520    649.9449 -39.82     3127.879     1.234     0.944      4.289     83.78396  19.3119        133
 3.50   0.0003    726.8686    848.5687 -57.32     344734.1     2.984     2.915      4.951     83.79344  14.2063        134
 5.12   0.0160    727.7788   1178.4082 -13.06     5669.814     1.537     1.448      4.558     83.77448  18.6661        135
 4.33   0.0128    716.0901    808.4656 -15.44     7103.935     1.606     1.513      4.503     83.75552  18.4213        136
 4.84   0.0127    709.1076   1164.1731 -23.00      7174.17     1.652     1.382      4.524     83.75552  18.4106        137
 5.30   0.0107    704.4922   1339.0616 -15.57     8490.589     1.766     1.733      6.641     83.75552  18.2277        138
 3.59   0.0070    703.0034    952.5806  46.55     12920.43     1.868     1.843      4.399     83.77448  17.7718        139
 8.49   0.0170    691.0121   1214.2306  71.87     5366.021     1.013     0.760      6.078     83.81239  18.7259        140
 4.37   0.0085    685.7341    644.3630  89.09     10649.66     2.081     1.796      5.143     83.79344  17.9817        141
 7.36   0.0092    683.1537    472.2704 -85.37     9866.483     2.308     2.158     12.596       83.765  18.0646        142
 6.11   0.0094    681.5815    543.7034 -69.59     9712.484     2.273     1.857      9.107       83.765  18.0817        143
 3.50   0.0003    648.6836   1464.4570 -40.95     339737.6     2.942     2.859      4.813     83.74603  14.2221        144
 7.64   0.0269    654.4812    871.4532   0.21     3382.058     1.120     0.500      4.386     83.72706  19.2270        145
 4.29   0.0070   1542.6431    654.8121 -45.38     12909.06     2.035     1.962      5.187     83.79344  17.7728        146
 3.84   0.0017    639.9423    536.9742 -83.24     53241.75     2.556     2.431      5.033     83.81239  16.2344        147
 6.89   0.0269    630.9633    806.3074   1.12     3385.609     1.247     0.766      4.398     83.73655  19.2259        148
 4.40   0.0157    623.5655   1581.1472 -50.13     5783.646     1.500     1.436      3.988     83.81239  18.6445        149
 4.98   0.0152    605.5164    586.4456  53.86     5993.659     1.543     1.389      4.341     83.75552  18.6058        150
 3.50   0.0003   1563.8098    304.2241 -45.62     300292.2     2.923     2.836      4.898     83.78396  14.3561        151
 6.05   0.0121    896.0804    538.6010  44.70     7493.615     1.940     1.683      6.658     83.80292  18.3633        152
 6.31   0.0171   1561.8214    861.9495 -23.36     5333.158     1.254     1.102      4.768     83.80292  18.7325        153
