#   1 KRON_RADIUS            Kron apertures in units of A or B                         
#   2 MAGERR_APER            RMS error vector for fixed aperture mag.                   [mag]
#   3 Y_IMAGE                Object position along y                                    [pixel]
#   4 X_IMAGE                Object position along x                                    [pixel]
#   5 THETA_IMAGE            Position angle (CCW/x)                                     [deg]
#   6 FLUX_APER              Flux vector within fixed circular aperture(s)              [count]
#   7 A_IMAGE                Profile RMS along major axis                               [pixel]
#   8 B_IMAGE                Profile RMS along minor axis                               [pixel]
#   9 FLUX_RADIUS            Fraction-of-light radii                                    [pixel]
#  10 FLUXERR_APER           RMS error vector for aperture flux(es)                     [count]
#  11 MAG_APER               Fixed aperture magnitude vector                            [mag]
#  12 NUMBER                 Running object number                                     
 3.50   0.0000    181.0222   1105.8365 -40.31      2525469     6.539     5.885     10.208     83.79344  12.0441          1
 3.68   0.0006     52.4050     61.7681  -2.27     152160.9     6.359     5.786     15.327     83.80292  15.0942          2
 3.50   0.0004     58.9521   1076.9418  81.32     241637.6     2.093     1.972      3.903     83.77448  14.5921          3
 3.50   0.0036     15.7237    983.4587 -87.90     25021.05     4.509     1.979      8.378     83.75552  17.0542          4
 3.50   0.0044     17.0120     89.4810 -42.63     20541.01     1.663     1.619      3.623     83.80292  17.2684          5
 3.50   0.0017     13.8143   1444.2383 -42.28     53122.21     1.721     1.697      3.575     83.81239  16.2368          6
 3.64   0.0448     16.2665    382.9738  86.43     2030.035     1.231     1.191      3.186     83.79344  19.7812          7
 4.95   0.0863     13.1674    839.5089 -76.27     1054.211     1.479     0.949      4.321     83.74603  20.4927          8
 3.64   0.0984      9.2333   1182.3411 -70.45     924.6157     1.026     0.964      2.793     83.80292  20.6351          9
 4.21   0.1236      5.6605   1467.9125   8.54     698.0288     1.152     0.903      3.561     79.43346  20.9403         10
 4.51   0.0365      3.6078    143.2684  59.55     2166.937     1.696     1.490      4.995     72.85126  19.7104         11
 5.88   0.0893      3.6479    183.5916 -38.45     888.2032     1.080     0.962      4.217     73.04725  20.6787         12
 6.99   0.2065      2.5114    843.4935  44.82     360.0262     0.507     0.493      2.497     68.46735  21.6592         13
 6.37   0.1403      1.8622    302.3619  20.33      508.801     0.906     0.677      3.996     65.73298  21.2836         14
 3.91   0.0206     23.8545    365.4416  -3.18      4417.41     1.390     1.345      3.755     83.77448  18.9371         15
 4.93   0.1694     14.8386   1561.6169 -19.92     537.2113     0.905     0.686      2.827     83.81239  21.2246         16
 4.67   0.1580     17.1879   1213.4882  -0.33      575.857     0.921     0.725      2.498     83.79344  21.1492         17
 7.39   0.2666     15.4944    192.9995 -32.51     341.2418     0.786     0.318      3.176     83.75552  21.7173         18
 4.18   0.0346     33.0747   1108.5681  65.68     2626.453     2.036     1.213      4.370       83.765  19.5016         19
 3.82   0.0617     23.0219    381.4543   6.25     1475.131     1.319     1.170      3.765     83.82187  20.1279         20
 5.46   0.1098     22.9778    696.8055  -3.26      828.808     0.886     0.748      3.452     83.77448  20.7539         21
 7.61   0.3217     20.6041    212.2110 -18.94     282.6767     0.744     0.450      3.013     83.74603  21.9218         22
 6.44   0.1259     23.9324   1451.8411 -46.75      722.493     0.843     0.652      3.643     83.78396  20.9029         23
 4.88   0.0516     32.3874    325.0325 -26.40     1763.814     1.486     1.262      4.276     83.79344  19.9339         24
 7.47   0.1432     26.2151    701.0262  -0.99     635.4858     0.703     0.411      3.716     83.78396  21.0422         25
 6.50   0.0980     33.5743     14.7714 -89.15     928.4808     0.947     0.712      4.480     83.79344  20.6306         26
 3.57   0.0732     37.0450   1519.9745 -74.77     1242.896     1.093     1.076      2.690     83.82187  20.3139         27
 4.28   0.0539     38.0067   1169.0526  23.11     1690.644     1.223     1.198      3.764      83.8503  19.9799         28
 3.71   0.0641     41.6028    913.7512 -64.32     1420.646     1.133     1.039      2.860     83.84082  20.1688         29
 3.50   0.0004     79.0617    535.8607 -66.40       231899     1.966     1.931      3.757       83.765  14.6368         30
 4.97   0.0549     43.5270    438.5287 -52.86     1655.913     1.481     1.242      4.703     83.70808  20.0024         31
 4.10   0.1709     38.6270   1224.5396 -37.16     532.3832     1.156     0.777      3.006     83.80292  21.2344         32
 4.55   0.0776     49.4868    263.5109  89.83     1171.378     1.455     1.089      4.304     83.72706  20.3783         33
 4.50   1.8541     41.5007    999.9727  -1.62     49.04152     0.790     0.500      2.118     83.72706  23.8236         34
 7.08   0.2131     42.5779    226.7772  19.95     426.9064     0.748     0.450      2.948     83.78396  21.4742         35
 7.84   0.1849     45.7927    473.3825 -71.71     492.0257     0.746     0.449      3.375     83.75552  21.3200         36
 4.11   0.0910     49.4914   1433.9777  -4.26      999.449     1.069     0.925      3.044     83.75552  20.5506         37
 5.09   0.1720     46.7959   1429.1587  44.33     529.1902     0.809     0.669      2.610     83.81239  21.2410         38
 5.94   0.1537     46.8517    664.8470 -43.30     592.1964     0.825     0.669      3.285     83.81239  21.1188         39
 6.42   0.1070     50.4846    119.9498   0.88      849.871     0.780     0.500      3.297     83.74603  20.7266         40
 3.52   0.0107     74.1052    126.4799 -19.14     8525.995     1.475     1.433      3.314     83.71758  18.2231         41
 7.34   0.3378     57.4917   1240.0228 -32.67     269.2715     0.781     0.319      2.546     83.75552  21.9745         42
 4.98   0.0769     64.9824   1146.2659   9.37     1184.224     1.374     1.141      4.857     83.80292  20.3664         43
 7.06   0.0822     68.4563     17.7707  88.90     1107.937     0.996     0.721      4.934     83.81239  20.4387         44
 6.44   0.1262     66.8790   1414.1798 -28.14     721.0579     0.963     0.744      4.096     83.79344  20.9051         45
 6.93   0.4417     65.5014   1514.5054 -45.69     205.7446     0.501     0.499      2.484     83.68911  22.2667         46
 5.53   0.1609     70.7447   1320.8502 -68.46     565.4425     0.911     0.682      3.188     83.78396  21.1690         47
 3.50   0.0003    120.9251    787.4896 -59.16     344537.9     2.018     1.992      3.807     83.71758  14.2069         48
 3.90   0.0420     81.3288    419.7149 -76.83     2166.366     1.520     1.278      3.804     83.71758  19.7107         49
 3.94   0.0195     89.6612    375.3916 -19.36     4657.764     2.301     2.014      5.805     83.84082  18.8796         50
 8.71   0.0438     75.8810     80.4187 -26.69     2076.862     1.370     0.840      8.220     83.80292  19.7565         51
 4.79   0.1687     78.7909   1031.8494 -33.64     539.5912     0.892     0.849      3.363     83.82187  21.2198         52
 3.50   0.0001    192.5951    316.2862 -64.39      1474674     2.878     2.293      4.029     83.77448  12.6283         53
 3.50   0.0071     95.5876     54.3806 -29.57     12865.35     1.614     1.584      3.663       83.765  17.7764         54
 5.86   0.1371     87.0195   1358.1309 -88.30     664.2287     0.995     0.847      4.205     83.83134  20.9942         55
 5.84   0.0701     87.4903    757.1628  35.83     1296.938     1.165     1.017      5.156     83.73655  20.2677         56
 6.63   0.0845     82.9746    930.8279  20.66     1076.897     1.160     0.723      5.188     83.79344  20.4696         57
 6.93   0.0968     86.4810    862.1655 -47.77     939.9649     1.108     0.733      5.316     83.77448  20.6172         58
 6.86   0.2165     85.0348   1559.2076  52.97     420.2357     0.930     0.470      3.706     83.79344  21.4913         59
 6.00   0.0881     90.8526   1043.8802  55.00     1031.706     1.397     0.799      4.644     83.72706  20.5161         60
 3.82   0.0701     90.7001    494.0876   0.64     1295.825     1.105     1.019      3.046     83.67962  20.2686         61
 4.28   0.0307     97.1019    451.1805 -12.65     2958.979     1.924     1.255      5.086     83.73655  19.3721         62
 5.06   0.0641     94.6267   1074.8350  39.51     1418.774     1.336     1.126      4.557     83.79344  20.1702         63
 7.44   0.1306     85.3500    923.3128 -46.64     696.0823     0.575     0.334      2.791     83.73655  20.9433         64
 6.97   0.1562     87.8495    810.6924 -59.25     581.9759     0.869     0.590      3.779     83.72706  21.1377         65
 6.33   0.2007     94.0801    387.5246  89.88     453.2654     0.774     0.499      2.944     83.75552  21.4091         66
 4.03   0.0007    233.9082    401.8713 -47.20     139179.5     8.632     7.090     22.498     83.72706  15.1911         67
 6.55   0.1158    101.8555    517.3245  20.24     785.6375     0.933     0.683      4.318     83.74603  20.8119         68
 5.90   0.0717    112.7964    268.6332  80.50      1269.81     1.522     1.118      5.661     83.80292  20.2907         69
 4.71   0.1620    107.3404    861.3599  41.75     561.6238     0.979     0.859      2.714     83.79344  21.1764         70
 6.49   0.0928    106.1678   1098.1515 -41.98     981.0342     0.806     0.676      4.400     83.81239  20.5708         71
 6.85   0.1315    106.9845   1420.9861 -44.46     692.1395     0.881     0.534      3.668     83.78396  20.9495         72
 7.78   0.1726    106.4694    180.4571 -48.20     526.8392     0.503     0.495      3.016     83.74603  21.2458         73
 5.35   0.0894    114.2177    414.3000 -75.12      1016.99     1.174     0.927      4.157     83.73655  20.5317         74
 5.05   0.2084    109.9821   1513.4705   1.43     436.7889     0.806     0.687      2.893     83.82187  21.4493         75
 3.50   0.1158    116.1276    989.3898 -72.21     786.4285     1.139     0.958      2.970     83.82187  20.8109         76
 4.15   0.1287    116.6369    152.4058  53.02     706.8085     1.006     0.952      2.618     83.79344  20.9267         77
 5.52   0.0616    116.3723     65.2133   7.35     1477.474     1.480     0.950      4.717     83.79344  20.1262         78
 3.50   0.0005    161.4548   1466.8241 -54.44     195554.6     1.934     1.900      3.740     83.82187  14.8218         79
 5.02   0.0723    125.2403    492.5927  -6.86     1258.409     1.464     1.092      4.063     83.80292  20.3004         80
 8.11   0.2642    117.6457    911.6918 -47.04     344.1548     0.575     0.334      2.415     83.71758  21.7081         81
 4.68   0.0730    130.2387    416.2955 -27.12     1246.233     1.014     0.997      3.306     83.71758  20.3110         82
 4.35   0.1893    127.1574   1476.9080  43.78     480.2777     0.822     0.651      2.065     83.70808  21.3463         83
 5.12   0.1576    128.0846    884.0657 -58.07     577.0485     0.780     0.779      3.186     83.71758  21.1470         84
 5.84   0.0637    141.3550    884.3093  52.16     1427.937     2.131     0.964      7.085     83.72706  20.1632         85
 8.30   0.4669    134.6447     97.6783 -46.36     194.7968     0.581     0.330      3.025     83.74603  22.3260         86
 5.23   0.0509    145.7969    352.2505 -48.50     1788.923     1.407     1.153      4.905     83.84082  19.9185         87
 6.25   0.2211    138.1987   1599.6450 -72.96     311.3414     0.752     0.444      3.218      63.3956  21.8169         88
 3.50   0.0021    169.2841    875.6372 -78.34     43943.14     1.768     1.723      3.666     83.77448  16.4428         89
 3.99   0.0816    150.7436   1278.8497  28.32     1115.547     1.078     1.029      3.240     83.77448  20.4313         90
 4.29   0.0214    164.2198   1444.2903  61.79     4252.135     1.450     1.305      4.059     83.77448  18.9785         91
 3.87   0.1347    154.5441     80.6298 -48.01     675.7617     1.066     0.917      2.697     83.81239  20.9755         92
 6.00   0.1288    155.1815   1578.5652   5.70     706.6641     0.898     0.727      3.900     83.79344  20.9270         93
 7.51   0.2754    154.5055    822.5117  46.03     329.9943     0.501     0.498      2.941     83.69859  21.7537         94
 3.50   0.0333    165.7383    102.5978 -37.77     2732.768     1.311     1.165      2.999     83.84082  19.4585         95
 4.87   0.0867    165.0086    574.7706  86.48     1049.667     1.251     0.963      3.876     83.79344  20.4974         96
 7.70   0.0486    165.8022   1054.6754 -60.40     1874.237     1.211     1.000      7.269     83.81239  19.8679         97
 8.26   0.2088    159.3821    491.2143  17.93      435.748     0.756     0.448      3.910     83.78396  21.4519         98
 5.10   0.1564    164.3577   1196.5062  18.24     581.2194     0.945     0.817      2.925     83.70808  21.1391         99
 4.96   0.0772    167.8831    649.7219  36.86     1178.238     1.237     1.028      4.060     83.73655  20.3719        100
 5.03   0.0501    168.4620   1367.5079  -4.70     1815.961     1.259     0.968      4.303     83.75552  19.9022        101
 6.77   0.0905    174.8292   1198.9620 -74.73     1005.478     1.100     0.850      4.704     83.80292  20.5441        102
 4.54   0.0452    179.3327    573.3319  24.33      2013.69     1.714     1.330      4.769     83.72706  19.7900        103
 5.66   0.0348    185.8885   1353.4348 -69.02     2614.606     1.580     1.377      6.864       83.765  19.5065        104
 4.12   0.0180    191.7545   1349.0994  -8.69     5058.552     1.394     1.366      3.616     83.68911  18.7899        105
 6.94   0.0563    189.5625   1026.0391  51.22     1615.817     1.298     1.107      7.226     83.82187  20.0290        106
 8.39   0.1572    182.3929     58.7790 -19.01     578.7872     0.766     0.444      4.299     83.77448  21.1437        107
 3.61   0.0048    209.8589    826.0873  -7.87     18983.49     4.937     2.269     10.169     83.74603  17.3541        108
 3.95   0.0055    229.0334    560.6039 -26.64     16581.53     3.951     3.606     10.376     83.80292  17.5009        109
 7.27   0.1496    186.4370    834.3389  -8.75     608.2984     0.995     0.478      4.494     83.79344  21.0897        110
 5.73   0.0503    194.2279    266.1493  -2.74     1808.419     1.598     1.112      6.000     83.81239  19.9068        111
 3.50   0.0002    258.9285    995.8074 -39.84     597533.9     2.157     2.062      3.861     83.82187  13.6091        112
 5.33   0.0149    207.8602    348.2912  42.92     6121.557     2.172     1.551      7.845     83.73655  18.5828        113
 3.50   0.0099    205.7459    547.4401  30.29     9145.562     1.440     1.435      3.302     83.77448  18.1470        114
 7.23   0.0667    193.8830   1158.3497  19.93     1363.757     0.901     0.693      5.408     83.74603  20.2132        115
 4.67   0.0430    202.5069    249.0628 -82.07     2117.138     1.245     1.125      4.167     83.74603  19.7356        116
 6.30   0.0989    195.0164    447.8040  -1.57     919.4899     0.905     0.757      4.154     83.75552  20.6411        117
 3.50   0.0098    211.3949   1304.6354 -22.74     9244.327     1.484     1.447      3.443     83.79344  18.1353        118
 3.50   0.0002    264.9597     65.7597 -32.49     441372.3     2.095     2.035      3.828     83.82187  13.9380        119
 4.14   0.0336    209.9293    683.1187 -66.62     2708.274     1.588     1.287      4.132     83.72706  19.4683        120
 5.97   0.2128    205.0531    940.3129  79.60     427.3099     0.730     0.683      2.752     83.72706  21.4731        121
 6.18   0.1045    204.7234    935.2993 -17.45     869.7855     1.044     0.660      4.347     83.69859  20.7015        122
 5.76   0.1406    204.9661    182.0299 -44.92     647.1896     0.793     0.788      3.195     83.79344  21.0224        123
 6.06   0.0194    221.6865    344.0318  25.49     4686.649     2.076     1.969     10.544     83.78396  18.8728        124
 3.64   0.1129    208.3053   1224.1161  17.48     805.2443     1.017     0.915      2.762     83.67961  20.7852        125
 3.50   0.0086    223.2675   1224.5825 -89.29     10561.44     1.447     1.430      3.256     83.81239  17.9907        126
 6.36   0.0767    216.6158    881.3004 -56.94      1186.19     1.809     0.740      5.473     83.75552  20.3646        127
 6.23   0.0517    216.7369    739.7720 -48.77     1758.954     1.484     1.052      6.363     83.79344  19.9369        128
 3.50   0.0001    311.2113    437.7717 -43.93      1739159     2.528     2.337      4.104     83.80292  12.4492        129
 3.50   0.0255    221.6353    773.3149 -28.64     3567.475     1.304     1.232      3.034     83.78396  19.1691        130
 7.25   0.1352    213.9205    791.8632 -44.17     672.6052     0.851     0.667      4.211     83.72706  20.9806        131
 8.64   0.0429    220.8395    373.6221  32.45     2119.366     1.683     0.981      9.680     83.80292  19.7345        132
 7.72   0.0518    226.6158    323.3230 -86.04     1756.214     1.792     0.855      9.273     83.81239  19.9386        133
 4.09   0.0131    243.0104    111.1028 -84.61     6924.525     2.358     1.744      6.017     83.74603  18.4490        134
 4.02   0.0051    254.5417    611.2194 -43.66     17927.62     2.738     2.260      7.121     83.81239  17.4162        135
 7.73   0.2356    220.6618   1401.3055  46.61     385.9866     0.567     0.338      2.715     83.73655  21.5836        136
 6.32   0.0522    229.1916    546.3879 -64.50     1741.471     1.265     1.034      6.537     83.74603  19.9477        137
 4.00   0.0307    238.3424    837.3022  -9.76     2966.193     1.711     1.461      4.712     83.71758  19.3695        138
 3.60   0.2937    232.0458   1551.7197 -75.01     309.6422     0.719     0.670      2.100     83.74603  21.8228        139
 5.39   0.1002    238.9705   1477.4504 -68.12     908.8034     1.289     0.924      4.288     83.81239  20.6538        140
 5.53   0.0250    251.0242   1371.4264  88.51     3634.991     1.875     1.660      7.655     83.79344  19.1487        141
 5.00   0.0361    249.4536    105.7782 -15.15      2519.38     1.367     1.268      4.827     83.81239  19.5468        142
 6.38   0.0824    247.8134   1412.9871  26.31     1103.895     1.222     0.976      5.190       83.765  20.4427        143
 3.56   0.0710    252.4222   1351.3031 -18.77     1281.822     1.077     1.070      3.023     83.74603  20.2804        144
 4.93   0.2095    248.0549    561.1425 -45.10     434.2309     0.823     0.656      3.180     83.75552  21.4557        145
 5.40   0.1103    250.4485   1549.2814 -84.04     824.7504     0.998     0.957      3.629     83.74603  20.7592        146
 3.50   0.0009    286.7189   1484.9951 -39.03     104523.4     1.874     1.841      3.692     83.78396  15.5020        147
 6.17   0.1523    248.9496    149.9729  73.74     597.5496     0.793     0.788      3.391     83.81239  21.1091        148
 6.83   1.2822    252.4687    693.5012  40.35     70.93084     0.503     0.496      2.513     83.74603  23.4229        149
 3.50   0.0039    281.0660   1520.9102  76.99     23298.02     1.639     1.588      3.495     83.75552  17.1317        150
 6.41   0.0816    264.1126    722.8807 -57.13     1113.993     1.243     0.947      5.269     83.72706  20.4328        151
 3.50   0.0001    350.4285    889.1489 -49.01      1586098     2.387     2.221      3.959     83.81239  12.5492        152
 3.50   0.0003    317.8304    903.7720 -63.35     301493.8     2.038     1.981      3.820     83.80292  14.3518        153
