#   1 KRON_RADIUS            Kron apertures in units of A or B                         
#   2 MAGERR_APER            RMS error vector for fixed aperture mag.                   [mag]
#   3 Y_IMAGE                Object position along y                                    [pixel]
#   4 X_IMAGE                Object position along x                                    [pixel]
#   5 THETA_IMAGE            Position angle (CCW/x)                                     [deg]
#   6 FLUX_APER              Flux vector within fixed circular aperture(s)              [count]
#   7 A_IMAGE                Profile RMS along major axis                               [pixel]
#   8 B_IMAGE                Profile RMS along minor axis                               [pixel]
#   9 FLUX_RADIUS            Fraction-of-light radii                                    [pixel]
#  10 FLUXERR_APER           RMS error vector for aperture flux(es)                     [count]
#  11 MAG_APER               Fixed aperture magnitude vector                            [mag]
#  12 NUMBER                 Running object number                                     
 4.66   0.0027     53.3701     63.9065   0.33     27778.33     5.346     4.847     17.181     69.40009  16.9407          1
 4.79   0.0167     16.7161    985.4154 -86.84     4528.869     3.984     2.201     11.086     69.44723  18.9100          2
 5.07   0.0185     18.1894     91.5415  86.21     4071.428     2.215     2.110      7.693     69.47079  19.0256          3
 3.50   0.0077     14.9013   1446.0841 -41.38      9721.37     2.448     2.348      5.731     69.35291  18.0807          4
 3.50   0.0017     60.0040   1078.7539 -68.39     44640.39     2.944     2.936      6.611     69.47079  16.4257          5
 7.01   0.0682     25.0118    367.4980 -87.68     1104.685     1.484     1.238      7.253     69.39223  20.4419          6
 3.50   0.0000    182.2392   1107.8169 -37.57      1571424     4.759     4.425      8.547     69.45508  12.5593          7
 8.46   0.1484     34.7508   1109.7596  72.02     508.1888     0.859     0.352      3.903     69.44723  21.2849          8
 3.50   0.0017     80.3017    537.8538 -63.57     43641.57     2.884     2.811      6.395     69.36077  16.4502          9
 5.64   0.0428     75.2082    128.0785   7.55     1763.319     1.848     1.579      7.158     69.44723  19.9342         10
 3.50   0.0012    122.0068    789.4358 -48.27     64444.14     3.024     2.920      6.523     69.43937  16.0270         11
 5.48   0.0300     96.8864     56.4073 -71.89     2513.508     1.997     1.926      8.394     69.42366  19.5493         12
 7.78   0.0723     90.1377    376.6794 -84.05     1042.171     1.663     0.811      7.113     69.38436  20.5052         13
 3.50   0.0003    193.6548    318.2545 -64.86     274265.3     3.604     3.206      6.687     69.43152  14.4546         14
 8.31   0.1320     98.4899    452.9708   1.55     571.1398     0.801     0.500      4.478     69.40794  21.1581         15
 3.50   0.0021    162.6065   1468.6003 -48.91     36372.36     2.857     2.740      6.357     69.40009  16.6481         16
 4.30   0.0091    170.5437    877.6212 -24.83     8293.436     2.450     2.384      6.985     69.45508  18.2532         17
 4.81   0.0029    234.9494    403.9689 -40.42     25596.21     6.462     5.517     21.313     69.45508  17.0296         18
 7.66   0.1048    166.7667    104.6338 -51.15     720.0229     1.190     0.814      6.396     69.46293  20.9066         19
 7.78   0.1123    165.0963   1446.3479 -19.74     671.0228     0.931     0.682      5.195     69.36864  20.9832         20
 7.36   0.0741    192.8807   1350.2953 -39.52     1016.609     1.495     1.122      8.653     69.36864  20.5321         21
 5.87   0.0214    211.0185    828.4678  -4.65     3530.921     3.453     2.315     13.445     69.45508  19.1803         22
 5.29   0.0416    206.7520    549.3409 -45.49      1812.34     1.916     1.730      7.307      69.4158  19.9044         23
 4.92   0.0463    212.4464   1306.3748 -86.34     1628.758     1.854     1.649      5.788     69.46293  20.0204         24
 6.31   0.0252    230.1041    562.0859 -34.65      2990.54     3.211     2.625     13.647     69.35291  19.3606         25
 7.04   0.0604    209.0439    349.7184   5.59     1248.367     2.056     1.260     10.312     69.40009  20.3091         26
 3.50   0.0008    260.0271    997.7144 -32.96     98126.64     3.108     3.027      6.664     69.42366  15.5705         27
 4.71   0.0391    224.0652   1226.2837 -20.72     1926.051     1.857     1.718      5.767     69.38436  19.8383         28
 9.06   0.1265    210.5037    683.9939 -32.35     595.7162     0.790     0.316      3.864      69.4158  21.1124         29
 8.20   0.0679    221.4668    346.4656  46.51     1108.954     1.425     1.262      8.548     69.38436  20.4377         30
 3.50   0.0009    266.0551     67.7294 -46.53     82091.87     3.069     2.956      6.508     69.40009  15.7642         31
 6.58   0.0944    223.0545    774.9872  32.06     799.0209     1.233     1.218      6.563     69.46293  20.7936         32
 7.21   0.0484    243.5259    113.3848 -72.38     1558.306     2.132     1.609     11.060     69.47864  20.0684         33
 5.38   0.0224    255.5203    613.4874 -34.80      3365.97     2.722     2.229     10.288      69.3765  19.2322         34
 3.50   0.0002    312.5810    439.6433 -46.91     335918.2     3.341     3.242      6.683     69.43937  14.2344         35
 8.45   0.1124    239.0145    838.5069  88.39     670.9725     0.800     0.500      4.622      69.4158  20.9832         36
 3.55   0.0039    287.8746   1486.6700 -37.53     19543.01     2.729     2.624      6.332      69.3765  17.3225         37
 3.54   0.0178    282.1709   1522.5713 -57.11     4233.746     2.237     2.131      5.649     69.43937  18.9832         38
 3.67   0.0053    303.2971    201.9391 -62.46     14183.88     2.638     2.559      6.378     69.38436  17.6705         39
 3.50   0.0013    318.9419    905.7490 -50.05     56321.27     2.960     2.898      6.439      69.4158  16.1733         40
 5.86   0.0458    290.0642    515.4205 -43.74     1645.615     1.859     1.703      7.935     69.45508  20.0092         41
 3.50   0.0003    351.6704    891.0421 -42.49     297020.2     3.363     3.241      6.731     69.42366  14.3680         42
 5.18   0.0414    294.2253   1327.8463 -64.99     1820.098     1.811     1.691      6.321     69.46293  19.8998         43
 3.50   0.0003    351.7484   1346.0500 -36.39     286448.5     3.313     3.171      6.668     69.46293  14.4074         44
 8.32   0.0883    297.8438   1414.4490 -85.07     853.9797     1.301     0.486      5.179     69.44723  20.7214         45
 3.71   0.0080    322.2881    697.4871 -25.38     9449.217     2.435     2.390      6.092      69.3765  18.1115         46
 6.51   0.1078    303.0039    563.4498  87.15     700.1093     1.162     0.981      5.198     69.47864  20.9371         47
 6.06   0.0418    327.7697    595.6106 -71.53     1805.514     1.974     1.918      9.189     69.45508  19.9085         48
 4.92   0.0116    346.6015    867.2303  18.69     6488.979     2.861     2.381      9.631     69.40794  18.5196         49
 8.53   0.0966    323.2297    640.0140  -0.59     780.8655     0.698     0.421      4.188     69.46293  20.8186         50
 4.76   0.0145    356.0260    432.0794  87.11     5193.087     2.496     2.332      8.272     69.43152  18.7614         51
 4.17   0.0076    368.3613    761.2231 -35.81     9886.171     2.615     2.420      7.171     69.44723  18.0624         52
 6.36   0.0798    350.1034     54.6538 -21.73     944.2565     1.382     1.164      6.660     69.38436  20.6123         53
 4.87   0.0196    367.4929    442.9348 -35.45     3851.157     2.199     2.160      7.818     69.40794  19.0860         54
 4.78   0.0441    361.4933   1500.6189 -39.83     1710.073     1.812     1.670      6.189     69.42366  19.9675         55
 3.50   0.0016    395.3764    231.6054 -61.83     47882.65     2.946     2.880      6.545     69.43152  16.3496         56
 7.80   0.1723    361.1692   1034.1797  42.65     437.4487     0.767     0.572      3.703     69.42366  21.4477         57
 5.65   0.0566    381.0497      1.7524  88.80      1037.03     2.135     0.727      5.358     54.07071  20.5105         58
 8.06   0.1274    372.7130    992.8636 -66.61     591.3362     0.965     0.672      4.687     69.39223  21.1204         59
 4.12   0.0096    398.3277    354.7166   5.68     7863.287     2.419     2.381      6.677      69.3765  18.3110         60
 3.64   0.0116    397.4610   1461.3257 -23.83     6497.181     2.404     2.266      5.957     69.40794  18.5182         61
 3.50   0.0017    419.8367    433.5835 -58.69     43604.22     2.834     2.817      6.359     69.45508  16.4512         62
 3.51   0.0036    415.8958    837.5114 -48.18     21041.59     2.714     2.631      6.218     69.35291  17.2423         63
 3.84   0.0466    393.8893   1088.9030 -24.19     1615.544     1.829     1.746      5.022     69.35291  20.0292         64
 5.52   0.0355    412.5150      2.1003  89.26     1690.921     3.144     1.055      8.008     55.24825  19.9797         65
 8.72   0.1115    398.0094    626.0000  90.00      675.715     0.853     0.289      3.715     69.40009  20.9756         66
 3.50   0.0006    461.3327    807.6813 -41.80     135222.6     3.125     3.024      6.536     69.38436  15.2224         67
 3.93   0.0200    424.4247    926.5838 -73.49     3767.639     2.218     2.075      6.262     69.42366  19.1098         68
 3.54   0.0049    438.2094    252.3092 -22.94     15458.84     2.667     2.585      6.292     69.40794  17.5771         69
 7.96   0.0732    421.4103    159.0942  66.35     1029.789     1.299     1.123      7.794     69.40794  20.5181         70
 4.92   0.0644    433.2141   1422.2384  75.75     1171.796     1.587     1.455      5.350     69.45508  20.3779         71
 4.58   0.0150    450.5570     21.3708 -80.62     5043.264     2.283     2.197      7.386     69.46293  18.7932         72
 4.48   0.0131    457.9465     34.5625 -25.31     5762.417     2.433     2.277      7.370     69.43937  18.6485         73
 5.57   0.0190    467.9408    850.8246  23.70     3977.357     6.481     2.304     20.998     69.46293  19.0510         74
 9.10   0.1162    434.5980    150.8039  18.87     648.8398     0.771     0.446      4.628      69.4158  21.0197         75
 6.79   0.1411    440.1227    306.1780 -32.48     534.2762     1.137     0.800      4.734     69.43937  21.2306         76
 7.63   0.0819    445.2960    122.4233  33.99     920.5557     1.291     0.942      6.625      69.4158  20.6399         77
 8.37   0.0966    447.9803    885.2001  17.76     780.5211     1.345     0.552      6.332     69.43152  20.8190         78
 4.64   0.0421    463.8789    468.8594  55.78     1789.221     1.963     1.724      5.983     69.40794  19.9183         79
 4.62   0.0350    472.3755    735.0891  25.44     2155.805     1.930     1.809      5.671      69.4158  19.7160         80
 5.75   0.0475    471.6077    254.6995  85.35     1588.259     1.743     1.651      8.135     69.40009  20.0477         81
 7.46   0.1374    461.1063   1097.1104  75.57     548.1876     0.975     0.702      4.833     69.36864  21.2027         82
 3.93   0.0270    478.1623    923.1752 -38.12     2797.027     2.130     1.850      5.715     69.44723  19.4333         83
 5.27   0.0731    478.3757   1277.2144 -76.28     1031.431     1.623     1.316      5.340     69.42366  20.5164         84
 4.68   0.0693    484.0925   1070.7201 -63.60     1087.156     1.691     1.476      5.234     69.39223  20.4593         85
 6.81   0.0396    495.7200     82.9163 -84.39     1902.337     2.354     1.996     11.768     69.39223  19.8518         86
 5.93   0.0413    495.9522   1186.4457  -9.05     1825.856     2.797     1.785      9.640     69.46293  19.8963         87
 4.76   0.0054    533.2038    519.0621  37.98     14035.39     4.396     3.915     14.682     69.47864  17.6819         88
 3.71   0.0065    512.7703   1302.9841   1.53     11651.08     3.214     2.410      7.355     69.45508  17.8841         89
 7.82   0.0650    504.2839    762.8732 -18.39     1159.198     1.322     1.098      7.679     69.38436  20.3896         90
 6.13   0.1239    502.7135    863.6923  -7.41     608.2293     1.318     0.852      4.575     69.36864  21.0898         91
 4.70   0.0315    515.7469   1461.2188  20.18     2396.837     3.707     1.729     10.559     69.45508  19.6009         92
 7.98   0.1024    509.8079    166.5956  70.58     736.4464     0.763     0.446      4.312     69.42366  20.8821         93
 8.01   0.2839    509.5138    454.4899 -44.65     265.3449     0.503     0.496      3.021      69.3765  21.9905         94
 8.05   0.1203    513.6719   1179.6215  13.08     627.2744     1.164     0.603      4.669     69.47079  21.0564         95
 3.50   0.0002    588.1991   1315.9669 -38.53     308895.7     3.254     3.137      6.572     69.42366  14.3255         96
 8.59   0.1441    518.5825    643.1854 -19.40     523.3329     0.773     0.446      4.534     69.43152  21.2531         97
 3.93   0.0482    540.4721   1000.0886 -46.92     1564.564     1.999     1.628      4.687     69.38436  20.0640         98
 4.56   0.0349    559.1486   1041.7238 -49.55     2159.761     1.905     1.756      6.090     69.38436  19.7140         99
 3.87   0.0111    572.9556   1242.8220 -28.33     6775.261     2.382     2.281      6.028     69.44723  18.4727        100
 3.50   0.0001    631.4180    483.3808 -44.31     547195.1     3.471     3.329      6.781     69.43152  13.7046        101
 4.00   0.0081    580.9852    144.9868 -62.85     9284.956     2.482     2.376      6.352     69.43152  18.1306        102
 5.98   0.0460    571.3608     45.9273  64.65     1638.088     2.063     1.660      8.476     69.42366  20.0142        103
 3.88   0.0081    582.3660    319.3436 -29.95     9346.486     2.531     2.405      6.215     69.44723  18.1234        104
 6.00   0.0577    571.9494   1447.6144  45.99     1308.101     1.879     1.528      7.358     69.45508  20.2584        105
 4.89   0.0171    596.9901    782.7942  84.19     4402.516     3.294     3.137     10.616     69.40794  18.9407        106
 7.19   0.0547    575.0060   1336.7366 -69.33     1379.905     1.694     1.614     10.161     69.47079  20.2004        107
 6.96   0.1133    584.8660     75.8078  79.67     665.7795     1.095     0.859      5.229     69.47864  20.9917        108
 4.47   0.0794   1001.7277   1555.5181 -34.07     948.6486     1.504     1.278      4.645      69.3765  20.6072        109
 8.60   0.0936   1598.7208    655.0220  -1.97     649.6827     0.741     0.679      4.445     55.97407  21.0182        110
 5.55   0.0632   1565.9288    784.8401  77.23     1192.362     1.810     1.476      6.241     69.43152  20.3590        111
 3.50   0.0013   1558.1409    487.7713 -79.67     55932.98     2.884     2.853      6.330     69.45508  16.1808        112
 5.16   0.1031    886.1887   1500.2479 -31.93     731.9444     1.475     1.194      4.795     69.45508  20.8888        113
 6.66   0.0785    877.9839   1177.5114 -16.81     960.2878     1.390     1.207      6.304     69.42366  20.5940        114
 3.50   0.0003    859.6315   1224.5569 -40.22     276608.9     3.278     3.133      6.652     69.46293  14.4453        115
 6.45   0.0846    868.6469    939.6868  10.70     891.1555     1.646     0.960      5.456     69.40794  20.6751        116
 6.52   0.1260    860.1113   1157.0590  81.66     598.1876     1.303     0.900      5.216     69.39223  21.1079        117
 8.81   0.1758    859.0093   1339.4808 -89.34     428.7524     0.801     0.500      3.776     69.42366  21.4695        118
 4.62   0.0321    869.8472   1103.8760 -38.57     2349.265     2.090     1.909      6.713     69.40009  19.6227        119
 6.04   0.0834    843.8174   1106.2993  23.41     903.5089     1.522     1.174      5.696     69.40794  20.6602        120
 7.61   0.1519    845.0912   1064.6450  19.49      496.081     0.955     0.682      4.546     69.38436  21.3111        121
 5.90   0.0417    838.1814   1246.9702 -20.17     1806.323     1.978     1.742      8.599     69.43937  19.9080        122
 5.51   0.0530    836.7602    298.9550 -65.05     1423.552     1.834     1.556      6.755     69.43937  20.1666        123
 3.69   0.0120    823.2612    654.5356 -35.60     6303.135     2.359     2.282      5.831     69.40009  18.5511        124
 3.67   0.0135    803.4128   1378.7422 -54.00     5567.075     2.300     2.183      5.582     69.45508  18.6859        125
 3.50   0.0046    798.7738    695.8101 -84.75     16235.94     3.076     2.543      6.697     69.43152  17.5238        126
 5.04   0.0271    800.9283     41.3083 -29.45     2784.313     2.080     1.919      7.028     69.39223  19.4382        127
 5.20   0.0357    774.6801   1427.5056 -73.06     2111.204     2.432     2.040      8.602     69.38436  19.7387        128
 6.16   0.0518    766.9759    392.1918  19.80     1455.753     1.712     1.448      7.685     69.43152  20.1423        129
 4.96   0.0562    742.9076    556.5101 -23.97     1340.429     1.705     1.658      5.527     69.36864  20.2319        130
 3.50   0.0002    724.3961    405.0894 -41.01     375804.8     3.434     3.279      6.780     69.40794  14.1126        131
 7.44   0.1654    738.0159   1157.9910 -44.70     455.6158     0.909     0.532      3.873     69.40009  21.4035        132
 6.06   0.1199    736.1520    649.9449 -39.82     628.6594     1.234     0.944      4.723     69.43152  21.0540        133
 3.50   0.0012    726.8686    848.5687 -57.32     64501.53     2.984     2.915      6.471     69.43937  16.0261        134
 5.12   0.0762    727.7788   1178.4082 -13.06     989.1821     1.537     1.448      5.550     69.42366  20.5618        135
 4.33   0.0588    716.0901    808.4656 -15.44     1281.638     1.606     1.513      5.170     69.40794  20.2806        136
 4.84   0.0627    709.1076   1164.1731 -23.00     1202.676     1.652     1.382      5.749     69.40794  20.3496        137
 5.30   0.0516    704.4922   1339.0616 -15.57     1461.458     1.766     1.733      7.074     69.40794  20.1380        138
 3.59   0.0339    703.0034    952.5806  46.55      2221.06     1.868     1.843      5.057     69.42366  19.6836        139
 8.49   0.0885    691.0121   1214.2306  71.87     852.3939     1.013     0.760      5.945     69.45508  20.7234        140
 4.37   0.0357    685.7341    644.3630  89.09     2114.712     2.081     1.796      5.746     69.43937  19.7369        141
 7.36   0.0445    683.1537    472.2704 -85.37     1694.617     2.308     2.158     13.210      69.4158  19.9773        142
 6.11   0.0400    681.5815    543.7034 -69.59     1885.052     2.273     1.857     10.246      69.4158  19.8617        143
 3.50   0.0012    648.6836   1464.4570 -40.95     64188.81     2.942     2.859      6.372     69.40009  16.0314        144
 7.64   0.1537    654.4812    871.4532   0.21     490.3488     1.120     0.500      4.494     69.38436  21.3237        145
 4.29   0.0315   1542.6431    654.8121 -45.38     2391.735     2.035     1.962      5.659     69.43937  19.6032        146
 3.84   0.0075    639.9423    536.9742 -83.24     10053.34     2.556     2.431      6.356     69.45508  18.0442        147
 6.89   0.1595    630.9633    806.3074   1.12      472.491     1.247     0.766      4.809     69.39223  21.3640        148
 4.40   0.0793    623.5655   1581.1472 -50.13     950.9698     1.500     1.436      5.345     69.45508  20.6046        149
 4.98   0.0673    605.5164    586.4456  53.86      1119.83     1.543     1.389      5.492     69.40794  20.4271        150
 3.50   0.0013   1563.8098    304.2241 -45.62     56169.23     2.923     2.836      6.332     69.43152  16.1763        151
 6.05   0.0520    896.0804    538.6010  44.70     1449.958     1.940     1.683      7.482     69.44723  20.1466        152
 6.31   0.0841   1561.8214    861.9495 -23.36     897.1894     1.254     1.102      5.632     69.44723  20.6678        153
