#   1 KRON_RADIUS            Kron apertures in units of A or B                         
#   2 Y_IMAGE                Object position along y                                    [pixel]
#   3 MAG_BEST               Best of MAG_AUTO and MAG_ISOCOR                            [mag]
#   4 FLUX_BEST              Best of FLUX_AUTO and FLUX_ISOCOR                          [count]
#   5 X_IMAGE                Object position along x                                    [pixel]
#   6 THETA_IMAGE            Position angle (CCW/x)                                     [deg]
#   7 A_IMAGE                Profile RMS along major axis                               [pixel]
#   8 B_IMAGE                Profile RMS along minor axis                               [pixel]
#   9 MAGERR_BEST            RMS error for MAG_BEST                                     [mag]
#  10 NUMBER                 Running object number                                     
#  11 FLUXERR_BEST           RMS error for BEST flux                                    [count]
 4.47     94.4127  19.6730      2242.85   1125.4513 -67.03     8.432     4.008   0.2175          1     449.2278
 3.50     47.1609  21.4789     425.0686     46.6974 -18.43     3.115     2.992   0.4728          2     185.0749
 3.50     33.0301  20.3524     1199.656    450.1791   3.93     1.743     1.661   0.0926          3      102.304
 3.50      7.9031  18.5262     6449.225    753.4478   2.44     1.983     1.923   0.0200          4     118.6662
 6.18     12.8639  29.5621    0.2484131    858.4266  50.98     1.289     0.732 449.2759          5      102.768
 0.00      7.2113  99.0000  -0.09851074   1284.7981 -46.48     0.737     0.563  99.0000          6     40.21803
 0.00      6.0000  99.0000    -4.302124   1058.0139   0.00     0.847     0.289  99.0000          7     56.03421
 7.55      4.2469  22.5004     165.8979    947.4111  45.53     1.314     0.771   0.7662          8     117.0517
 4.12      3.8348  23.1977     87.28259     72.4608 -16.44     1.246     1.182   1.0227          9     82.19123
 0.00      2.8667  99.0000     -125.908    936.5207 -10.63     1.625     1.134  99.0000         10     120.6541
 0.00      4.6532  99.0000    -55.19165    706.7065 -47.69     0.565     0.339  99.0000         11     41.38401
 4.68      1.4142  24.0449     39.99792   1254.7991  -3.78     1.168     0.488   1.4262         12     52.52854
 0.00     20.2485  99.0000    -6.716553    234.9529  16.47     1.096     0.906  99.0000         13     60.12957
 6.38     27.8961  23.1022     95.30786    906.5863  84.86     1.356     1.278   1.6523         14     145.0082
 0.00     24.3722  99.0000    -29.28809    897.5001  53.33     1.032     0.802  99.0000         15     123.7682
 7.50     21.4723  23.0291     101.9467    123.0066 -32.35     0.789     0.316   0.7047         16     66.15691
 4.06     69.3732  20.3799     1169.564   1463.3916  74.90     3.177     2.756   0.1926         17     207.3794
 7.74     26.3235  22.9735     107.3036    417.3286 -44.76     0.571     0.337   0.5923         18     58.52583
 3.72     32.4382  22.8308     122.3683   1515.2990  30.41     1.107     0.846   0.5475         19     61.69164
 0.00     33.1804  99.0000     -9.99585      7.1900  44.59     0.766     0.561  99.0000         20     41.38401
 0.00     47.1839  99.0000    -23.69482   1049.4036  70.29     0.741     0.448  99.0000         21      33.7899
 0.00     47.9779  99.0000    -97.80579    229.0076   1.06     0.613     0.605  99.0000         22     88.32899
 4.81     62.2807  22.3759     186.0503   1014.5557  61.95     1.392     1.123   0.6132         23     105.0571
 6.14     52.4638  22.6637     142.7352    204.7005   8.76     0.973     0.482   0.5652         24     74.28658
 0.00     63.3292  99.0000    -357.8118    894.4313  32.57     1.490     1.316  99.0000         25     153.6109
 3.50     95.1854  18.8288     4880.608    917.0939  -9.20     2.432     1.965   0.0296         26      133.031
 0.00     63.8519  99.0000    -7.276489    889.1374  18.53     1.225     0.942  99.0000         27     40.21803
 3.99     65.5806  23.8128     49.53003    971.4410  42.08     1.049     0.908   1.4662         28     66.87215
 3.50     77.6456  21.4537      435.012    183.8656  35.74     1.922     1.615   0.2690         29     107.7398
 4.01     80.3084  23.9232     44.74084    542.7675 -74.51     1.942     1.344   2.7099         30     111.6431
 3.50     94.6567  21.5105     412.8491    347.2999   1.29     1.577     1.515   0.2434         31     92.53746
 6.42     88.6536  23.0411     100.8253   1026.2157  38.54     0.937     0.744   0.9967         32     92.53746
 3.75     93.2241  22.2849     202.3132    737.8329  -2.89     1.220     1.140   0.4089         33     76.18356
 8.20     87.6823  23.2872     80.37476   1076.8492 -12.12     1.079     0.416   1.2913         34     95.57228
 4.37    106.6409  20.8832     735.6986    974.6325 -73.93     2.125     1.886   0.2221         35     150.4821
 3.50    106.5787  21.7120     342.9382     47.9887 -15.76     1.548     1.459   0.2881         36      90.9821
 8.45    104.3943  22.1103     237.6243    265.9957  54.86     1.476     0.923   0.7773         37     170.0721
 0.00     94.4939  99.0000    -48.25049   1248.5023  44.92     0.506     0.494  99.0000         38     85.03606
 3.50    100.2884  23.2339     84.41638    357.1915   0.39     1.135     0.906   0.7837         39     60.91562
 0.00     96.5149  99.0000    -2.458984    590.4865 -44.94     0.510     0.489  99.0000         40      33.7899
 0.00     99.9511  99.0000    -1.222046    173.4704  86.25     0.780     0.498  99.0000         41     63.96325
 0.00    110.1582  99.0000    -89.61487   1458.8864 -14.43     1.146     0.934  99.0000         42     106.8531
 4.28    115.3070  22.6736      141.433    925.0088 -50.53     1.258     1.145   0.6824         43     88.86594
 3.70    125.7528  21.9657     271.4794    300.9926 -16.30     1.591     1.521   0.3960         44     98.99538
 4.21    118.2691  24.1236     37.19995     79.9862  35.99     1.594     1.331   3.1194         45     106.8531
 7.06    113.9025  22.7587     130.7773     66.6563 -18.40     0.921     0.676   0.7895         46      95.0732
 8.59    112.3366  22.7307     134.1913   1000.3244 -45.54     0.575     0.335   0.5236         47     64.70274
 3.50    151.1229  19.2083     3441.071     45.8490 -52.15     1.949     1.851   0.0601         48      190.464
 3.50    212.4886  16.2702     51513.97    967.6542  40.01     3.048     2.888   0.0038         49     179.0652
 9.18    119.3316  22.4799     169.0626    231.3272 -45.20     0.574     0.335   0.4341         50      67.5798
 0.00    130.0126  99.0000     -33.1344     55.4443  37.97     1.241     1.021  99.0000         51     96.56269
 5.54    133.5662  23.9111     45.24207   1498.7036  -0.10     1.148     0.959   2.3993         52     99.95188
 5.33    140.3865  23.7347     53.22559    218.2452 -66.34     1.301     1.032   2.1802         53     106.8531
 4.32    158.7005  18.1179     9393.453     50.5213  14.00     2.556     2.201   0.0261         54     225.5869
 0.00    131.6804  99.0000    -15.19824   1315.2950  46.43     0.554     0.344  99.0000         55     57.70724
 4.48    152.9119  22.5810     154.0332    879.5300 -60.81     1.011     0.961   0.5327         56     75.55652
 3.72    173.7126  21.3873      462.479    557.3240  47.42     2.364     2.321   0.3541         57     150.7979
 4.23    183.8768  21.4517     435.8387   1263.0786  -7.93     2.523     2.381   0.4462         58     179.0652
 0.00    166.4995  99.0000    -5.385742    746.5167 -74.63     1.407     1.236  99.0000         59     115.4145
 4.28    164.1927  23.2714     81.55457   1521.5858  74.81     1.105     0.950   1.0228         60     76.80547
 5.24    162.8947  24.3336      30.6582   1154.2748  52.79     0.950     0.930   3.0320         61     85.59367
 4.89    172.7050  21.9296     280.6396    945.0700 -51.52     1.571     1.253   0.4545         62     117.4574
 3.50    185.3256  20.3753     1174.577    378.2397 -28.54     1.786     1.762   0.0984         63     106.4069
 7.50    164.1903  22.9939      105.301    759.0225  37.12     0.938     0.473   0.8712         64     84.47475
 7.24    168.6113  24.8860     18.43396   1158.9104  47.54     1.111     0.480   5.3291         65      90.4577
 3.94    174.5828  24.3168     31.13757    961.8307  82.06     0.977     0.930   2.2567         66     64.70274
 3.50    237.3644  16.8661     29755.99   1389.7841 -41.09     2.309     2.169   0.0050         67     135.8617
 6.87    181.0341  24.4187     28.34656    461.1556 -54.27     0.926     0.470   2.9896         68     78.03444
 0.00    196.4339  99.0000    -346.2197   1066.2972 -20.88     2.031     1.821  99.0000         69     204.1425
 6.78    188.9588  20.2708     1293.235   1070.1791 -24.62     1.548     1.057   0.0800         70     95.31094
 3.50    206.1323  21.3242     490.1206     21.5627 -56.80     1.638     1.562   0.2151         71     97.05411
 3.50    201.2601  21.8818     293.2826    185.9180   6.51     1.443     1.361   0.3149         72     85.03606
 5.23    202.1462  21.9821      267.403    412.4117  66.29     1.510     1.319   0.5165         73     127.1806
 0.00    201.9580  99.0000    -11.01514   1294.5009 -85.51     1.212     0.838  99.0000         74     83.90971
 5.93    205.3313  21.8244     309.2025    353.9930  16.74     1.813     1.438   0.5824         75     165.8232
 3.50    224.9422  19.8339     1933.904   1093.4563 -59.44     1.814     1.775   0.0617         76     109.9254
 3.99    218.7306  21.4964     418.2451   1020.6931  -7.62     2.094     1.983   0.3644         77       140.34
 4.87    216.3218  22.0983     240.2695   1198.5570  55.51     1.841     1.567   0.6465         78     143.0262
 6.51    203.9402  24.6864     22.15271    452.2255  87.50     0.695     0.417   2.9478         79     60.12957
 4.60    268.1983  20.7958     797.4115    140.7266  65.34     5.964     2.061   0.3790         80      278.297
 3.82    210.1299  24.4311     28.02539    908.8029  49.34     0.821     0.649   1.8128         81        46.78
 3.50    223.1118  23.3489     75.93457   1178.3679  -5.05     1.281     1.210   1.0806         82     75.55652
 6.18    213.5688  23.1698      89.5498   1061.7803  21.01     0.736     0.449   0.7574         83     62.45803
 3.89    286.2726  19.7456     2097.823   1328.5978 -54.54     4.071     3.479   0.1309         84     252.8605
 7.11    232.5957  22.6912     139.1667    654.3945  19.87     2.685     1.375   1.8379         85     235.5215
 3.53    242.9650  21.0393     637.2042    566.6058  37.93     1.679     1.645   0.1712         86     100.4267
 3.55    236.5731  21.7105     343.4065    836.9667   6.66     1.498     1.372   0.2810         87     88.86594
 3.50    258.8932  20.0801      1541.49   1426.9111 -51.38     2.259     1.731   0.0847         88     120.2591
 4.05    234.9387  22.5691     155.7279    880.2339 -62.63     1.346     1.177   0.6160         89     88.32899
 5.69    244.0083  21.3140     494.7617    660.8113  37.74     2.162     1.852   0.4319         90     196.7857
 3.50    247.6646  21.3023     500.1069    577.4250  67.60     1.633     1.559   0.2075         91     95.57228
 6.01    254.1846  21.8227      309.687   1369.7998 -47.94     2.427     1.671   0.7352         92     209.6608
 6.17    241.2870  22.3222     195.4938    369.2222  30.13     1.736     1.378   0.9196         93      165.536
 7.66    228.4811  26.7765     3.231567    906.4860  44.84     0.514     0.484  22.7109         94      67.5798
 7.03    242.2005  21.9362      278.955    966.9060 -61.08     1.771     0.956   0.6205         95     159.3867
 4.36    249.6382  25.1356     14.64673   1163.8445 -84.59     1.850     0.892   7.1962         96     97.05411
 6.57    255.1234  22.2163     215.5151     76.2674 -83.10     2.133     1.143   0.8929         97     177.1957
 0.00    243.4088  99.0000    -132.0917   1339.8333  80.45     1.073     0.852  99.0000         98     112.4921
 3.50    251.5225  23.2506     83.12964    914.5157  22.95     1.473     1.146   1.0194         99     78.03444
 6.16    261.7776  21.7167     341.4457    410.9438 -50.42     1.595     1.170   0.4623        100     145.3359
 4.50    296.8800  20.6097      946.473    375.0334  30.08     5.932     2.233   0.3242        101     282.5383
 3.81    279.1085  21.6830     352.2178   1128.7777 -37.13     2.416     1.730   0.4167        102     135.1596
 4.37    264.9361  23.0336      101.519    271.6232 -73.63     1.138     0.946   0.8282        103     77.42239
 6.46    263.5041  22.6609     143.0934    721.2064 -89.49     0.987     0.733   0.7177        104      94.5715
 3.50    281.3364  21.9761     268.8923    955.4014 -28.15     1.574     1.506   0.3717        105     92.02193
 3.50    266.9327  24.6736     22.41602    767.3180 -16.25     0.981     0.732   2.4556        106     50.68485
 3.50    286.3484  22.4927     167.0834    743.6095  40.15     1.460     1.383   0.5635        107     86.69816
 7.40    278.8119  26.3084     4.973267   1454.3896 -71.06     0.759     0.445  16.3610        108     74.92424
 6.29    279.6088  25.7166     8.577393    884.7463  18.33     0.745     0.451   7.9079        109     62.45803
 3.73    313.6259  21.0433     634.8546    792.7342  28.19     2.366     2.017   0.2406        110     140.6786
 7.37    289.1764  24.0113     41.25366   1177.8871  42.69     0.851     0.670   2.5159        111     95.57228
 0.00    292.0175  99.0000    -29.84204   1277.2856  87.01     0.742     0.692  99.0000        112     88.32899
 5.13    298.8221  22.7400     133.0431    863.1149  17.37     1.474     1.048   0.9078        113     111.2162
 3.50    374.0452  16.7604      32796.6   1263.0072 -33.49     2.333     2.210   0.0045        114     136.5603
 5.61    315.0114  20.3580     1193.402    803.5080  31.74     1.723     1.262   0.1005        115     110.3856
 3.50    338.2123  19.5086     2609.453    596.3755 -66.87     1.875     1.854   0.0470        116     112.9142
 3.50    332.7775  20.5596      991.173    789.3983 -34.10     1.680     1.646   0.1095        117     99.95188
 0.00    311.5056  99.0000    -20.80151   1549.0146  -1.35     0.805     0.500  99.0000        118      67.5798
 7.97    317.2074  23.4906     66.64355   1061.6068 -71.74     0.763     0.449   1.3488        119     82.76802
 0.00    323.1175  99.0000    -67.42981    833.2548  -4.62     1.149     1.073  99.0000        120     96.06876
 5.46    323.2687  22.1576     227.4813    289.3503  -5.53     1.242     1.080   0.5289        121     110.7876
 3.50    328.8228  22.2698     205.1499    720.6425 -72.46     1.375     1.253   0.4131        122     78.03444
 3.50    335.3305  22.2185     215.0861   1146.0575 -32.82     2.232     1.734   0.6052        123     119.8629
 6.41    327.7767  22.0937     241.2722    157.4338  64.09     1.391     0.861   0.5449        124     121.0477
 7.76    322.0162  23.3747     74.15295   1454.0000  90.00     0.864     0.289   1.0000        125     68.28014
 0.00    335.9540  99.0000    -118.2418   1038.2914 -51.54     1.658     1.399  99.0000        126     150.1656
 5.32    334.7170  25.0087     16.46313    661.8060   3.32     1.727     1.269   9.0083        127     136.5603
 3.50    361.4441  21.2686     515.8961    708.8192 -68.97     2.479     2.197   0.2961        128     140.6786
 0.00    329.3398  99.0000    -1.447266    220.3325 -45.30     0.580     0.332  99.0000        129     23.89307
 4.02    375.0766  20.3165     1239.922   1364.3392   5.19     3.340     2.486   0.1753        130     200.1416
 6.59    349.8664  24.2602     32.80469   1576.3282 -74.94     1.358     0.321   2.5013        131     75.55652
 3.50    347.4366  23.9194     44.89978   1599.3663  84.48     0.950     0.617   0.9728        132     40.21803
 5.25    348.1754  22.4475      174.187     40.1509  47.67     0.757     0.568   0.3749        133     60.12957
 3.50    363.7216  22.4157     179.3605    504.4440  69.04     1.459     1.405   0.5315        134     87.78874
 4.73    360.6756  21.9004     288.3076    640.8969 -84.53     1.210     1.133   0.3674        135     97.54305
 0.00    359.7431  99.0000    -155.2841   1278.9045 -66.17     1.174     1.052  99.0000        136     139.6604
 5.16    357.1693  25.6770      8.89624   1291.4176  69.78     0.750     0.447   6.1873        137     50.68485
 6.49    357.3419  23.9845     42.28821   1050.6553 -12.61     1.135     0.614   2.4027        138     93.56001
 0.00    363.0229  99.0000    -284.9711     99.2650  89.07     1.168     0.847  99.0000        139     127.9265
 7.33    359.0027  22.2000      218.786   1095.3845 -89.96     0.875     0.486   0.4080        140     82.19123
 0.00    369.7059  99.0000    -128.4843   1341.3179  34.94     2.012     1.027  99.0000        141     187.8812
 0.00    365.7765  99.0000    -179.0594   1284.6234 -65.85     1.036     0.935  99.0000        142     141.0163
 4.23    451.0447  21.1448     578.2233   1220.1050  54.56     7.010     2.619   0.5877        143     312.8989
 0.00    368.1672  99.0000    -37.69727    268.3489 -52.80     1.060     0.678  99.0000        144     98.02955
 3.92    401.3127  20.8860     733.8455    825.4194  45.88     3.281     2.709   0.2997        145     202.5046
 3.55    389.2865  21.0799     613.8204   1463.5734  -5.81     1.789     1.699   0.1883        146     106.4069
 6.34    380.2635  22.7405     132.9839    959.4734 -67.00     2.181     1.119   1.3912        147     170.3516
 7.87    368.8943  23.1143     94.25122    643.5867  27.32     1.151     0.577   1.2566        148     109.0564
 3.72    377.3903  23.0932     96.10071    163.5931  83.29     1.331     1.253   0.9482        149     83.90971
 3.89    385.7827  22.7743     128.9108    867.8937  84.36     1.357     1.232   0.7211        150     85.59367
 6.27    377.7131  23.3352     76.89929    430.5041 -24.91     1.601     0.716   1.6357        151      115.826
 0.00    383.5173  99.0000    -80.04114   1278.0845  88.46     1.306     1.166  99.0000        152     135.8617
 3.55    392.8902  22.6829     140.2275   1317.9773  52.61     1.645     1.444   0.7402        153     95.57228
 3.50    413.7154  19.8355      1931.12     67.4630 -60.35     1.877     1.839   0.0628        154     111.6431
 3.50    417.2204  19.4448     2767.546   1308.3070  17.11     1.920     1.876   0.0450        155     114.5871
 5.35    391.8077  23.5509     63.04333   1206.6018 -76.03     1.191     0.958   1.7136        156     99.47478
 3.50    719.8947  18.1006     9545.076    199.2038 -41.88    13.551    10.306   0.0814        157     715.0644
 5.07    393.7631  24.8606     18.86914     18.9677  -1.50     0.688     0.425   2.6924        158        46.78
 3.50    458.0837  18.0357     10132.48     12.6700 -49.85     2.253     2.053   0.0140        159     130.5037
 0.00    413.4766  99.0000    -9.698242    665.7608  68.88     1.487     0.880  99.0000        160     77.42239
 3.50    416.9565  25.1495     14.46069   1158.3895  81.84     1.470     1.033   5.6268        161     74.92424
 0.00    410.1406  99.0000    -24.52515    750.1879   9.17     1.114     0.725  99.0000        162     78.03444
 5.64    421.2555  22.8078     124.9891    102.5200  61.15     1.205     1.020   0.9400        163     108.1805
 0.00    419.6847  99.0000   -0.6184082    889.6652 -66.61     0.907     0.718  99.0000        164     29.26291
 6.45    421.7512  22.0567     249.6481    893.2390 -21.82     1.314     0.898   0.5197        165     119.4653
 6.55    425.8313  24.2231     33.94507    962.7754 -80.47     1.045     0.847   3.3611        166     105.0571
 4.90    439.7298  25.9956     6.633667    908.9675 -25.61     1.890     1.699  24.9951        167      152.679
 3.50    466.1190  18.7272     5359.506   1075.1609 -32.82     2.018     1.954   0.0240        168     118.6662
 0.00    428.7175  99.0000    -29.66846   1431.8264 -31.22     0.864     0.605  99.0000        169     70.33929
