#   1 KRON_RADIUS            Kron apertures in units of A or B                         
#   2 MAGERR_APER            RMS error vector for fixed aperture mag.                   [mag]
#   3 Y_IMAGE                Object position along y                                    [pixel]
#   4 X_IMAGE                Object position along x                                    [pixel]
#   5 THETA_IMAGE            Position angle (CCW/x)                                     [deg]
#   6 FLUX_APER              Flux vector within fixed circular aperture(s)              [count]
#   7 A_IMAGE                Profile RMS along major axis                               [pixel]
#   8 B_IMAGE                Profile RMS along minor axis                               [pixel]
#   9 FLUXERR_APER           RMS error vector for aperture flux(es)                     [count]
#  10 MAG_APER               Fixed aperture magnitude vector                            [mag]
#  11 NUMBER                 Running object number                                     
 4.42   0.0041     54.0685     63.6034   6.80     34542.54     4.384     4.012     129.0008  16.7041          1
 3.74   0.0275     17.4401    984.8297 -88.25     5085.785     3.758     1.712     129.0113  18.7841          2
 3.82   0.0351     18.7961     91.1034 -67.25     3987.033     1.571     1.479      128.943  19.0484          3
 3.50   0.0147     15.4618   1445.5586 -65.93     9506.333     1.661     1.588     128.9692  18.1050          4
 7.63   0.7995      4.3684    145.1962  17.69     145.9636     0.755     0.445     107.4521  22.6394          5
 5.74   0.7143     18.0265    384.0149  44.75     196.1467     0.889     0.533     129.0113  22.3185          6
 4.09   0.5443     25.4566    366.9559 -30.76     257.3702     1.204     1.016      128.985  22.0236          7
 3.50   0.0031     60.5961   1078.2490  78.52     44704.72     2.008     1.895     128.9955  16.4241          8
 8.72   0.3843     34.3224    326.3238 -44.93     364.4522     0.568     0.338     128.9798  21.6459          9
 7.75  99.0000     43.0166    915.4982 -57.51    -74.43269     0.786     0.317     128.9219  99.0000         10
 3.50   0.0033     80.9643    537.4206 -64.49     42640.93     1.931     1.852      129.027  16.4754         11
 4.31   0.0994     76.0022    127.6434   4.16      1409.11     1.252     1.146     129.0008  20.1776         12
 7.33   0.3972     82.8180    421.3965 -70.68      352.679     0.768     0.443      129.006  21.6816         13
 6.30   0.3286     91.1868    376.8293 -45.35     426.3252     1.373     1.033      129.006  21.4756         14
 3.50   0.0022    122.5955    788.9210 -60.42     63791.55     2.028     1.903     128.9587  16.0381         15
 4.19   0.0591     97.3835     55.9652  26.66     2370.247     1.408     1.368     129.0323  19.6130         16
 6.93   0.2531     99.0023    452.5196 -26.45     553.2579     1.068     0.660     128.9587  21.1927         17
 3.50   0.0039    163.1339   1468.1357 -64.40     35687.74     1.915     1.824     128.9587  16.6687         18
 3.50   0.0177    171.1503    877.1309 -55.12     7917.527     1.658     1.594     128.9482  18.3035         19
 4.56   0.3360    165.6820   1445.5413  19.58     416.8356     1.115     0.930     128.9692  21.5001         20
 5.47   0.3210    167.5449    104.2041 -51.07     436.3285     0.985     0.937      128.985  21.4505         21
 7.86  99.0000    170.3342   1368.3384 -44.83    -186.4259     0.580     0.332     128.9535  99.0000         22
 4.64   0.1428    193.3883   1350.3031 -37.44     980.3426     1.279     1.002     128.9062  20.5716         23
 4.72   0.0326    211.6115    827.4163  -9.06      4300.04     2.964     1.698     129.0113  18.9663         24
 3.50   0.0868    207.5168    548.9227 -57.89     1614.272     1.377     1.255     128.9692  20.0301         25
 3.50   0.1787    213.0179   1305.8772  83.84     783.4688     1.320     1.246     128.9535  20.8149         26
 6.28   0.4119    211.4447    684.7709 -89.13     340.1181     0.978     0.724      128.985  21.7209         27
 5.89   0.0391    231.0868    561.7986 -14.57     3578.791     2.541     2.368     128.9482  19.1657         28
 4.14   0.1042    224.5207   1225.8545 -66.21     1344.152     1.409     1.318     128.9692  20.2289         29
 3.97  99.0000    223.2465    774.6445 -11.22    -232.8628     1.088     0.911     128.9798  99.0000         30
 3.50   0.0012    260.5662    997.2287 -62.78     119860.8     2.051     1.951     129.0218  15.3533         31
 3.50   0.0017    266.7018     67.3902 -79.22     81580.71     2.031     1.922     128.9219  15.7710         32
 6.02   0.1085    244.4016    112.8097  87.30     1291.526     1.624     1.215     129.0165  20.2722         33
 9.03   0.3489    239.6895    838.6417 -42.97     401.4308     0.578     0.332     128.9587  21.5410         34
 4.92   0.0423    256.2684    612.7941 -36.28     3312.393     1.973     1.617     129.0113  19.2496         35
 7.04   0.1657    251.2776    107.5645 -70.48     844.8776     0.725     0.459      128.943  20.7330         36
 7.50   0.1711    252.7829   1372.4308 -69.94     818.8668     0.740     0.453      129.006  20.7670         37
 3.50   0.0075    288.3456   1486.2816 -50.17     18795.14     1.773     1.704     128.9692  17.3649         38
 7.78  99.0000    271.3754   1273.7629 -17.73    -250.5266     0.755     0.447     129.0165  99.0000         39
 3.50   0.0368    282.7355   1522.1678 -58.33     3803.801     1.479     1.402     128.9745  19.0995         40
 3.50   0.0100    303.9822    201.5967 -63.34     14051.13     1.727     1.629      129.006  17.6807         41
 6.32   0.1323    294.4589   1475.2285 -88.93      1059.26     0.931     0.715     128.9955  20.4875         42
 4.62   0.1541    302.9989    563.5146 -82.90     908.9037     1.088     0.954     128.9587  20.6537         43
 3.50   0.0167    322.8688    697.1341 -28.33     8365.785     1.646     1.599     128.9482  18.2437         44
 8.72   0.1515    308.5074     85.4808 -46.76      924.524     0.502     0.497     128.9692  20.6352         45
 6.96   0.3377    322.6497    641.1227 -76.26     414.7057     1.652     0.634     128.9692  21.5056         46
 4.68   0.0895    328.1545    595.1946  18.09      1565.69     1.444     1.406     128.9903  20.0632         47
 8.15  99.0000    330.2997   1545.6658  43.19    -88.18256     0.563     0.340     128.9587  99.0000         48
 5.77   1.8994    333.0812     93.3310 -24.06     73.74022     0.890     0.687     128.9692  23.3807         49
 4.11   0.1198    350.8782     54.3166 -75.74     1169.456     1.162     1.104      128.964  20.3800         50
 3.50   0.0145    368.9767    760.8846 -60.14     9689.807     1.612     1.558      128.943  18.0842         51
 3.50   0.0905    362.0957   1500.1870   6.06     1547.666     1.328     1.252     128.9062  20.0758         52
 4.61   1.6739    361.5793   1033.8596 -67.50     83.68185     0.895     0.685     128.9798  23.2434         53
 3.50   0.0030    396.0154    231.2810 -64.04     46990.18     1.903     1.853      128.943  16.3700         54
 7.32  99.0000    374.2171   1084.0031 -53.81    -31.22598     0.820     0.504     129.0113  99.0000         55
 3.50   0.0235    397.8886   1460.9868 -46.65     5967.839     1.580     1.511     128.9219  18.6105         56
 3.50   0.0202    398.9887    354.3897 -62.43     6943.532     1.604     1.531     129.0113  18.4460         57
 3.50   0.1537    394.5604   1088.5067 -26.74      911.262     1.300     1.290      128.943  20.6509         58
 8.67   0.5400    398.4763    627.4810 -41.88     259.3667     0.500     0.499     128.9745  22.0152         59
 3.50   0.0092    438.7730    251.9263 -49.63     15264.18     1.730     1.662     128.9535  17.5908         60
 5.26   0.1261    421.8422    158.7648  45.21     1111.185     1.306     1.074     128.9955  20.4355         61
 3.50   0.0010    461.8566    807.3768 -53.44     133495.5     2.076     1.959     128.9955  15.2363         62
 9.33   0.0722    427.0000    433.4613   0.00     1940.218     1.139     0.289     128.9798  19.8304         63
 6.34   0.3067    427.6794   1179.1434  28.12     456.7089     0.859     0.608     128.9692  21.4009         64
 3.50   0.1403    433.6892   1421.8652 -43.63     998.7117     1.242     1.193      128.985  20.5514         65
 6.14   0.1730    434.9740    150.9762  35.97     809.8914     0.787     0.769     129.0323  20.7789         66
 3.58   0.0271    451.1102     21.1536 -47.02     5161.029     1.614     1.488     128.9692  18.7682         67
 4.03   0.2825    440.7337    305.4698 -18.22     495.7525     0.972     0.956     128.9535  21.3118         68
 5.05   0.0252    468.5993    850.3436  23.02      5560.16     6.433     1.640      128.985  18.6873         69
 5.98   0.1198    446.1450    122.1041 -41.00     1168.523     1.212     1.029     128.9535  20.3809         70
 3.58   0.0255    458.6724     34.3886 -61.55     5497.912     1.548     1.448     128.9745  18.6995         71
 7.29   0.5134    453.6877   1533.3097  45.14     272.7817     0.558     0.343      128.964  21.9605         72
 3.81   0.0857    464.5611    468.4572 -57.86     1634.601     1.359     1.286      128.985  20.0165         73
 5.54   0.2144    461.9597   1096.1882   3.95     653.4604     0.902     0.755     129.0218  21.0120         74
 4.20   0.1042    472.1333    254.1283 -70.75      1344.43     1.310     1.217     128.9692  20.2287         75
 3.74   0.0737    472.9408    734.7563 -45.69     1901.307     1.396     1.270     128.9745  19.8524         76
 3.50   0.0450    478.8139    922.8199 -14.88     3114.639     1.423     1.385     129.0113  19.3165         77
 3.99   0.1505    478.7661   1276.7504 -60.77     930.9057     1.123     1.085     128.9903  20.6277         78
 3.50   0.1325    484.9320   1070.4031 -40.75     1057.148     1.255     1.171     129.0113  20.4897         79
 7.01   0.5390    479.6902    682.3506  43.17     259.8877     0.574     0.335     128.9798  22.0130         80
 5.51   0.0801    496.9702     82.7276  52.95     1748.772     2.015     1.747     128.9692  19.9432         81
 5.03   0.0693    496.5617   1186.5355 -13.80     2022.103     2.528     1.476     128.9745  19.7855         82
 8.56   0.1821    489.2356    839.2355  71.84     769.4557     0.854     0.348     129.0113  20.8345         83
 6.20   0.3997    499.0030    365.9965 -43.15     350.6141     0.888     0.533      129.027  21.6879         84
 4.04   0.3428    502.8415    863.5355 -75.78       408.53     1.133     0.943      128.964  21.5219         85
 5.99   0.1296    505.1446    762.7915  -0.61      1080.67     1.307     1.252      129.006  20.4658         86
 4.42   0.0491    516.1101   1460.7433  23.86     2850.571     3.654     1.299     128.9587  19.4127         87
 4.61   0.0081    532.2678    518.7524  19.75     17224.08     3.813     2.027     128.9535  17.4597         88
 6.94   0.1475    510.6393    165.5776  -9.62     949.6977     0.956     0.809     129.0165  20.6060         89
 3.66   0.1969    514.4973   1179.0811 -24.64     711.1985     1.149     0.942      128.964  20.9200         90
 6.35  99.0000    520.1909    641.4281 -43.11    -5.820807     1.057     0.724      128.985  99.0000         91
 3.83   0.0982    540.9631    999.7307 -73.14     1426.579     1.365     1.234     128.9745  20.1643         92
 3.91   0.0638    559.8441   1041.5250 -26.72     2196.004     1.442     1.386     128.9535  19.6959         93
 6.42  99.0000    556.6709    778.3320  44.87    -5.987068     0.575     0.335     128.9535  99.0000         94
 4.72   0.0909    571.7558     45.6415  63.90     1540.661     1.741     1.230     128.9798  20.0807         95
 4.57   0.0830    572.0264   1447.5919  14.46     1687.513     1.937     1.377      128.985  19.9819         96
 5.30   0.0955    565.7164    139.8193 -69.04     1466.007     0.941     0.673     128.9377  20.1347         97
 3.50   0.0152    581.4633    144.8291 -62.35     9198.737     1.656     1.556     128.9692  18.1407         98
 3.50   0.0154    582.9964    319.0084 -53.18     9093.482     1.651     1.591     129.0218  18.1532         99
 7.46   1.9347    577.1537   1001.2869 -58.49     72.39351     0.881     0.596     128.9692  23.4008        100
 4.86   0.0260    597.7661    782.5640 -41.75     5395.786     2.705     2.510     129.0165  18.7199        101
 4.98   2.0330    585.4760     75.9195  -0.34     68.89554     1.097     0.935     128.9745  23.4545        102
 4.84   0.1247   1000.7208   1273.7206 -39.29     1123.629     1.143     1.094     128.9798  20.4234        103
 5.83   0.2239   1598.2870    655.0114 -32.50     489.3323     1.541     0.993     100.8673  21.3260        104
 5.92   0.0862   1595.7097    374.0864 -77.65     1394.698     0.996     0.765     110.7507  20.1888        105
 3.95   0.0879   1543.5162    654.6589 -29.66     1593.308     1.408     1.265     128.9745  20.0443        106
 3.76   0.0355   1542.6946    135.1593 -40.42     3942.371     1.487     1.397     128.9324  19.0606        107
 7.62   0.2033   1516.8324   1547.2616  58.78     689.1216     0.877     0.603      128.985  20.9543        108
 3.50   0.0046   1508.0348    269.3838 -55.01     30773.02     1.794     1.703     129.0323  16.8296        109
 4.68   0.3264   1066.4927   1597.0061   0.05     352.5302     0.774     0.500     105.9595  21.6820        110
 6.29   0.1145    981.7812    797.9048 -56.74       1222.6     1.231     1.130     128.9167  20.3318        111
 6.33   0.1152    979.1254    452.8248  46.81      1215.58     0.825     0.671     128.9587  20.3380        112
 5.67   0.3843    965.9650    416.2868 -79.53     364.2971     0.732     0.686     128.9272  21.6464        113
 6.78   0.1332    952.1573    654.2010  68.62     1052.001     1.200     0.943     128.9955  20.4950        114
 5.19   0.5319    948.7294    445.0580 -10.35     263.3066     0.736     0.667     128.9587  21.9988        115
 4.22   0.0743    939.9414   1067.0508 -70.35     1884.625     1.360     1.230     128.9587  19.8619        116
 7.71   0.1290    939.0228    516.0239  42.72     1086.041     0.901     0.531     129.0323  20.4604        117
 4.57   0.1131    929.1133   1322.3604 -58.94     1237.878     1.196     1.135     128.9535  20.3183        118
 4.95   0.2312    913.7016    838.4946  -3.37      605.546     1.224     1.086      128.943  21.0946        119
 5.65   0.2209    913.0289   1000.9686  21.73     634.4704     0.786     0.778     129.0375  21.0440        120
 3.50   0.0240    901.2295    302.7910 -55.24       5849.3     1.580     1.492     129.0008  18.6322        121
 5.37   0.1193    897.0111    538.4183   3.31     1174.248     1.634     1.328     129.0113  20.3756        122
 3.50   0.0012    881.0668   1592.5131 -59.76     106834.9     2.045     1.937      120.785  15.4782        123
 6.18   0.1299    889.6179    325.1284  22.81     1078.228     1.308     0.827     128.9692  20.4682        124
 5.72   0.2636    886.5520   1500.2416  80.29     531.5137     1.169     1.105     128.9903  21.2362        125
 6.78   0.1568    885.5970    339.2297 -18.95     893.1918     0.760     0.448     128.9745  20.6726        126
 5.03   0.1952    878.3695    960.6810  48.93     717.5253     1.058     0.941     128.9482  20.9104        127
 6.79   1.2394    894.8953   1425.8496 -46.45     113.0006     0.836     0.667     128.9587  22.9173        128
 4.77   0.0553    870.2202   1103.6705 -63.77     2532.712     1.809     1.571     128.9692  19.5410        129
 6.16   0.1785    868.7444    939.5903  23.20     784.7987     1.548     1.092      129.006  20.8131        130
 7.69   0.6714    870.4854    643.4911 -44.30      208.571     0.503     0.497     128.9535  22.2519        131
 5.87   0.1953    859.0919   1339.9360 -74.74     717.0906     1.235     0.717     128.9692  20.9111        132
 5.39   0.1368    844.1019   1106.1355  25.15     1023.528     1.367     1.215      128.964  20.5247        133
 5.61   0.4580    845.7770   1063.5760 -17.33     305.9132     0.963     0.947      129.027  21.8360        134
 3.50   0.0964    837.3989    298.7010 -40.98     1451.955     1.272     1.134     128.9272  20.1451        135
 7.73   0.3573    837.6659   1520.3196  45.67      391.965     0.572     0.336      128.964  21.5669        136
 5.79   0.6130    836.6163    818.9075 -66.70     228.4094     0.875     0.700     128.9219  22.1532        137
 3.65   0.0241    823.7595    654.3607 -56.43     5802.343     1.597     1.503      128.964  18.6410        138
 3.59   0.0264    803.8754   1378.6185 -23.98     5301.416     1.617     1.547      128.964  18.7390        139
 3.50   0.0085    799.3028    695.5850 -86.57      16373.6     2.463     1.730     128.9062  17.5146        140
 3.54   0.0575    801.5685     41.0996 -41.06     2435.367     1.382     1.301     128.9009  19.5836        141
 4.75   0.0526    774.8555   1427.3445 -88.36     2662.633     2.391     1.653      128.964  19.4867        142
 4.28   0.0973    743.5651    556.2689 -45.82     1439.846     1.295     1.189      128.985  20.1542        143
 4.74   0.5569    738.9188   1157.9471  -3.17     251.4993     1.070     0.939     128.9745  22.0487        144
 5.37   0.2940    736.9377    649.5377 -86.45      476.384     1.077     0.943      128.964  21.3551        145
 3.50   0.0022    727.4247    848.3139 -54.55     64047.48     2.008     1.911      128.943  16.0337        146
 4.90   0.2149    728.1851   1178.1742 -80.75     652.0138     1.243     1.150     129.0008  21.0144        147
 7.12   0.7106    722.0979   1394.8606  45.96     197.0949     0.838     0.667     128.9587  22.3133        148
 4.19   0.1252    716.6962    808.2401 -50.75     1118.632     1.292     1.144     128.9167  20.4283        149
 5.08   0.1277    709.6812   1163.6775 -48.42     1097.165     1.334     1.221     128.9745  20.4493        150
 4.65   0.0979    705.1537   1339.0634 -27.12     1430.288     1.496     1.352      128.964  20.1614        151
 4.23   0.0612    703.4728    952.2607 -69.96     2290.329     1.474     1.411     128.9745  19.6503        152
 6.01   0.1760    699.8141    582.5355  -0.44     795.8726     1.345     0.664      128.985  20.7979        153
 7.05   0.4184    692.6078   1213.5953  47.11     334.9364     1.115     0.853     129.0323  21.7376        154
 7.21   0.1824    687.8056   1213.6979 -68.51     767.7783     1.382     0.774     128.9377  20.8369        155
 3.81   0.0657    686.3661    644.1091  89.50     2130.188     1.318     1.281     128.9324  19.7290        156
 5.93   1.4241    688.3208    130.7132  47.08     98.35668     0.551     0.345     128.9745  23.0680        157
 3.50   0.0022    649.1243   1464.2986 -56.87     62693.47     1.953     1.857     128.9587  16.0569        158
 4.84   0.4259    655.5063    870.8816  18.12       328.82     1.037     0.930     128.9587  21.7576        159
 5.08   0.2550    646.8604    652.8275  47.13       549.34     0.745     0.564     128.9903  21.2004        160
 4.74   0.5698    631.6495    805.8071  87.59     245.8574     1.060     0.900     129.0008  22.0733        161
 3.78   0.2086    624.1699   1581.3268 -34.90     671.4409     1.226     1.004      128.964  20.9825        162
 7.93   0.4349    618.9815   1150.5139 -89.29     321.9691     0.786     0.500     128.9324  21.7805        163
 5.70  99.0000   1546.9938    863.4224  88.62    -320.9269     1.271     1.102     128.9955  99.0000        164
 3.79   0.0539   1571.4199     92.6815 -44.95     2598.507     1.343     1.258     128.9535  19.5132        165
 3.50   0.3930   1585.8159   1108.8416 -44.59     356.5614     1.164     1.129     129.0375  21.6697        166
 4.26   0.0457   1567.4658     22.0305 -33.85     3065.702     1.446     1.283     128.9745  19.3337        167
 4.91  99.0000   1562.1361    861.4753  12.10    -271.7299     1.289     1.104     128.9745  99.0000        168
 6.09   0.2544   1566.8246    784.6442 -81.13     550.7621     1.517     1.233     129.0113  21.1976        169
