#   1 KRON_RADIUS            Kron apertures in units of A or B                         
#   2 MAGERR_APER            RMS error vector for fixed aperture mag.                   [mag]
#   3 Y_IMAGE                Object position along y                                    [pixel]
#   4 X_IMAGE                Object position along x                                    [pixel]
#   5 THETA_IMAGE            Position angle (CCW/x)                                     [deg]
#   6 FLUX_APER              Flux vector within fixed circular aperture(s)              [count]
#   7 A_IMAGE                Profile RMS along major axis                               [pixel]
#   8 B_IMAGE                Profile RMS along minor axis                               [pixel]
#   9 FLUXERR_APER           RMS error vector for aperture flux(es)                     [count]
#  10 MAG_APER               Fixed aperture magnitude vector                            [mag]
#  11 NUMBER                 Running object number                                     
 4.41   0.0072     54.0758     63.6034   6.75     34514.28     4.379     4.004     227.9692  16.7050          1
 3.66   0.0508     17.4136    984.8228 -87.92     4870.981     3.732     1.708     228.0714  18.8310          2
 3.81   0.0622     18.7962     91.1034 -67.25     3980.636     1.571     1.479     227.9321  19.0501          3
 3.50   0.0267     15.4618   1445.5586 -65.93     9283.615     1.661     1.588     227.9785  18.1307          4
 7.63   1.2402      4.3685    145.1962  17.69     166.3203     0.755     0.445     189.9428  22.4976          5
 5.90   0.9804     18.0262    384.0147  44.76     252.6133     0.889     0.533     228.0435  22.0439          6
 4.26   0.7646     25.4560    366.9562 -30.78     323.8445     1.205     1.017     228.0157  21.7742          7
 3.50   0.0056     60.5946   1078.2482  78.99     44391.56     2.003     1.894      228.025  16.4317          8
 8.74   0.5532     34.3225    326.3239 -44.93     447.5709     0.568     0.338     227.9971  21.4228          9
 7.76  99.0000     43.0166    915.4982 -57.51    -180.2722     0.786     0.317     227.8949  99.0000         10
 3.50   0.0002    182.7565   1107.2883 -33.46      1063558     5.458     4.811     227.9692  12.9831         11
 3.50   0.0058     80.9641    537.4206 -64.56      42641.4     1.933     1.854     228.0807  16.4754         12
 4.32   0.1734     76.0022    127.6434   4.16     1427.768     1.252     1.146     228.0343  20.1634         13
 7.41   0.6190     82.8177    421.3966 -70.69     400.1003     0.768     0.443     228.0435  21.5446         14
 6.37   0.4974     91.1871    376.8294 -45.36     497.9148     1.373     1.033     228.0343  21.3071         15
 3.50   0.0039    122.5955    788.9210 -60.42     63799.32     2.028     1.903     227.9599  16.0380         16
 4.18   0.1059     97.3836     55.9652  26.68     2339.416     1.407     1.368       228.09  19.6272         17
 7.03   0.4206     99.0022    452.5193 -26.45     588.5698     1.068     0.660     227.9599  21.1255         18
 3.50   0.0069    163.1363   1468.1375 -62.90     35635.18     1.913     1.819     227.9692  16.6703         19
 3.50   0.0009    194.4274    317.8813 -61.95     272568.6     2.315     2.075     227.9599  14.4613         20
 3.50   0.0314    171.1503    877.1309 -55.12     7892.188     1.658     1.594     227.9414  18.3070         21
 4.65   0.0074    235.6645    403.5279 -41.76     33627.89     5.702     4.705     227.9785  16.7332         22
 4.54   0.7556    165.6820   1445.5413  19.57     327.6845     1.115     0.930     227.9785  21.7614         23
 5.53   0.1007    172.4563    325.0473 -86.86     2459.311     1.300     1.158     227.9971  19.5730         24
 5.47   0.5638    167.5449    104.2042 -51.07     439.2301     0.985     0.937     228.0157  21.4433         25
 7.85  99.0000    170.3342   1368.3384 -44.83    -377.9124     0.580     0.332     227.9507  99.0000         26
 4.60   0.3041    193.3884   1350.3032 -37.44      813.857     1.279     1.002      227.867  20.7736         27
 4.70   0.0572    211.6114    827.4163  -9.06     4331.042     2.963     1.698     228.0528  18.9585         28
 3.73   0.1477    207.4908    548.9009 -53.40     1676.434     1.382     1.220     227.9321  19.9890         29
 7.24   0.3566    204.4811    250.5076  36.95     694.3294     0.500     0.499     227.9599  20.9461         30
 6.12   0.1450    209.4427    349.7659  55.13     1707.839     1.427     1.084      228.025  19.9689         31
 3.50   0.3900    212.9865   1305.8654 -82.20     634.8802     1.291     1.247     228.0064  21.0433         32
 6.31   0.5478    211.4448    684.7709 -89.13     452.0558     0.978     0.724     228.0064  21.4120         33
 5.92   0.0676    231.0869    561.7985 -14.58     3662.337     2.541     2.369     227.9414  19.1406         34
 4.19   0.2244    224.5206   1225.8544 -66.20     1103.519     1.409     1.318     227.9785  20.4430         35
 3.97  99.0000    223.2466    774.6445 -11.22    -152.8914     1.088     0.911     227.9971  99.0000         36
 7.86   0.1473    223.2873    345.5081 -53.29      1680.93     1.094     0.828     227.9692  19.9861         37
 3.50   0.0021    260.5662    997.2288 -62.80     119806.5     2.052     1.951     228.0714  15.3538         38
 3.50   0.0030    266.7018     67.3903 -79.21     81556.69     2.030     1.922     227.8949  15.7713         39
 6.02   0.1904    244.4015    112.8098  87.30     1300.435     1.624     1.215     228.0528  20.2648         40
 9.02   0.5723    239.6895    838.6416 -42.96     432.5443     0.578     0.332     227.9599  21.4599         41
 4.94   0.0722    256.2683    612.7941 -36.28     3432.391     1.973     1.617     228.0528  19.2110         42
 7.04   0.2913    251.2775    107.5645 -70.48     849.6253     0.725     0.459     227.9321  20.7269         43
 7.50   0.5307    252.7829   1372.4308 -69.93     466.6819     0.740     0.453     228.0435  21.3774         44
 3.50   0.0007    313.2035    439.2134 -58.92     333751.1     2.277     2.111     228.0528  14.2414         45
 3.50   0.0132    288.3456   1486.2816 -50.16     18798.04     1.773     1.704     227.9785  17.3647         46
 7.79  99.0000    271.3755   1273.7629 -17.73     -307.588     0.755     0.447     228.0621  99.0000         47
 3.50   0.0649    282.7355   1522.1680 -58.33     3816.356     1.479     1.402     227.9878  19.0959         48
 4.39   0.1457    290.6225    514.6550 -64.31     1700.206     1.556     1.393     228.0343  19.9737         49
 3.50   0.0175    303.9821    201.5968 -63.35     14118.19     1.728     1.630     228.0435  17.6756         50
 3.50   0.0044    319.4946    905.2604 -60.82      56201.1     1.978     1.867     227.9507  16.1756         51
 3.78   0.1889    294.7055   1327.4375 -47.70     1310.111     1.323     1.264     227.9042  20.2567         52
 6.32   0.2335    294.4589   1475.2285 -88.93     1060.351     0.931     0.715      228.025  20.4864         53
 7.59   0.2057    297.7295   1413.8472 -57.77     1203.383     1.412     0.801     227.9692  20.3490         54
 3.50   0.0008    352.2283    890.5814 -56.08       294089     2.244     2.095     228.0621  14.3788         55
 4.63   0.2826    302.9988    563.5146 -82.91     876.1566     1.088     0.954     227.9599  20.6935         56
 3.50   0.0009    352.2422   1345.7249 -54.64     283696.5     2.216     2.086     227.9507  14.4179         57
 3.50   0.0291    322.8688    697.1343 -28.26     8511.402     1.647     1.600     227.9507  18.2250         58
 8.72   0.2709    308.5074     85.4808 -46.76     913.7745     0.502     0.497     227.9785  20.6479         59
 7.00   0.4450    322.6497    641.1228 -76.26     556.3961     1.652     0.634     227.9785  21.1865         60
 4.73   0.1464    328.1193    595.2094  20.51     1690.941     1.453     1.372     227.9414  19.9797         61
 5.75   3.6313    333.0812     93.3310 -24.07     68.18152     0.890     0.687     227.9785  23.4658         62
 3.77   0.0327    347.1420    866.8646 -45.26      7562.75     1.651     1.523     227.9414  18.3533         63
 6.63  99.0000    336.0265   1440.2896  89.92    -134.2957     0.726     0.676     227.9135  99.0000         64
 3.92   0.0443    356.6105    431.6310 -74.45      5584.73     1.829     1.608     228.0528  18.6825         65
 4.03   0.2175    350.8782     54.3170 -75.76     1138.316     1.161     1.104     227.9785  20.4093         66
 3.50   0.0253    368.9768    760.8847 -60.15     9784.737     1.613     1.559     227.9321  18.0736         67
 3.50   0.1605    362.1071   1500.2202  -8.85     1542.053     1.295     1.254     227.9135  20.0798         68
 3.69   0.0798    368.3008    442.6079 -45.71     3102.303     1.502     1.374     227.9042  19.3208         69
 4.74   3.1891    361.4756   1033.9357 -61.83     77.63844     0.989     0.667     227.9878  23.3248         70
 7.74   1.1100    360.5103    533.4985  44.33     223.0022     0.502     0.498     227.9228  22.1792         71
 3.50   0.0053    396.0154    231.2811 -64.09     47057.98     1.904     1.854     227.9228  16.3684         72
 7.45  99.0000    374.2168   1084.0029 -53.86    -33.31998     0.820     0.504     228.0435  99.0000         73
 4.16   0.4569    373.6597    992.2760 -47.14      541.955     0.976     0.860     227.9971  21.2151         74
 3.50   0.0406    397.8886   1460.9867 -46.68     6099.759     1.581     1.512     227.8949  18.5867         75
 3.50   0.0352    398.9886    354.3898 -62.43     7045.309     1.604     1.532     228.0528  18.4302         76
 3.63   0.2717    394.5599   1088.5066 -26.76     910.9385     1.303     1.293     227.9228  20.6513         77
 3.50   0.0057    420.4062    433.1503 -62.14     43461.26     1.902     1.807      228.025  16.4547         78
 3.50   0.0120    416.4527    837.1818 -63.71     20688.76     1.806     1.708     228.0435  17.2607         79
 7.95  99.0000    397.3274    977.3210 -45.30    -319.0506     0.569     0.338     227.9878  99.0000         80
 8.68   0.6662    398.4764    627.4811 -41.88     371.6716     0.500     0.499     227.9878  21.6246         81
 3.66   0.0754    425.0089    926.1632 -34.01     3282.698     1.506     1.402     228.0528  19.2594         82
 3.50   0.0161    438.7677    251.9255 -53.57     15332.03     1.734     1.667     227.9692  17.5860         83
 5.29   0.2172    421.8422    158.7650  45.21     1140.141     1.306     1.074     228.0343  20.4076         84
 3.50   0.0019    461.8552    807.3752 -53.65     133533.9     2.078     1.966      228.025  15.2360         85
 6.47   0.5258    427.6801   1179.1434  28.18     470.8795     0.860     0.608     227.9878  21.3677         86
 3.50   0.2051    433.6889   1421.8654 -43.82     1207.203     1.244     1.194     228.0064  20.3455         87
 6.15   0.2972    434.9741    150.9762  35.97     833.5905     0.787     0.769       228.09  20.7476         88
 3.59   0.0483    451.1293     21.1607 -44.60     5122.688     1.605     1.472     227.9785  18.7763         89
 4.18   0.4264    440.7336    305.4700 -18.10     580.6232     0.972     0.956     227.9507  21.1403         90
 5.32   0.0442    468.5677    850.2765  23.09      5602.66     6.473     1.667     227.9321  18.6790         91
 5.98   0.2102    446.1450    122.1042 -41.00     1177.458     1.212     1.029     227.9507  20.3726         92
 5.99   0.3529    447.9012    883.5998  -4.17      701.412     1.532     0.983     227.9042  20.9351         93
 3.54   0.0453    458.6724     34.3886 -61.55     5466.621     1.547     1.447     227.9971  18.7057         94
 7.28   1.0018    453.6877   1533.3097  45.15     247.1383     0.558     0.343     227.9692  22.0676         95
 3.80   0.1418    464.5611    468.4572 -57.87     1746.023     1.359     1.286     228.0064  19.9449         96
 5.78   0.3788    461.9602   1096.1885   3.86     653.8464     0.903     0.755     228.0714  21.0113         97
 4.10   0.1760    472.1687    254.1147 -70.05     1406.696     1.346     1.210     227.9321  20.1795         98
 3.87   0.1271    472.9409    734.7567 -45.64     1948.416     1.398     1.272     227.9878  19.8258         99
 3.50   0.0789    478.8141    922.8201 -14.94     3138.213     1.426     1.388     228.0528  19.3083        100
 4.39   0.2612    478.8120   1276.7761  79.76     948.0786     1.151     1.097     228.0435  20.6079        101
 3.50   0.2341    484.9312   1070.4033 -40.62     1057.844     1.257     1.173     228.0343  20.4889        102
 7.06   0.7846    479.6900    682.3505  43.19     315.5645     0.574     0.335     227.9971  21.8023        103
 5.24   0.1221    496.5620   1186.5326 -13.80     2027.803     2.531     1.477     227.9785  19.7824        104
 5.54   0.1427    496.9911     82.6506  42.17     1735.086     1.932     1.709      228.025  19.9517        105
 8.60   0.3154    489.1940    839.3719  71.60     785.1908     0.774     0.439     228.0064  20.8126        106
 3.50   0.0215    513.2878   1302.2383 -34.02     11539.14     1.737     1.662     227.9321  17.8946        107
 6.25   0.5559    499.0030    365.9965 -43.16     445.6122     0.888     0.533     228.0807  21.4276        108
 4.71   0.0142    533.8983    518.5938  29.05     17442.51     3.593     2.882     227.9135  17.4460        109
 4.67   0.5707    502.7880    863.4911 -88.24     433.6392     1.151     0.977     227.8763  21.4572        110
 5.91   0.2263    502.2048   1310.0718 -40.47     1094.109     0.845     0.651     227.9971  20.4523        111
 6.23   0.2226    505.1451    762.7928  -0.44     1112.518     1.309     1.253     228.0157  20.4342        112
 4.50   0.0872    516.1095   1460.7418  23.86     2838.382     3.656     1.299     227.9599  19.4173        113
 6.97   0.2529    510.6393    165.5776  -9.65     979.1912     0.956     0.809     228.0621  20.5728        114
 4.98   0.1298    514.2516   1310.0317 -10.83     1908.488     1.302     1.185      228.025  19.8483        115
 3.86   0.3462    514.4966   1179.0813 -24.60     715.1664     1.149     0.942     227.9785  20.9140        116
 6.45   4.8651    520.1909    641.4284 -43.08     50.89664     1.057     0.724     228.0064  23.7833        117
 3.84   0.1722    540.9624    999.7307 -73.14     1437.749     1.366     1.235     227.9785  20.1558        118
 3.50   0.0008    588.6868   1315.8517 -53.51     305983.1     2.208     2.086     227.9785  14.3358        119
 3.77   0.1125    559.8197   1041.5360 -10.01     2201.607     1.430     1.373     227.9692  19.6931        120
 6.55  14.3949    556.5087    778.4934  44.42     17.19807     0.501     0.499     227.9599  24.9613        121
 3.50   0.0372    573.3907   1242.7067 -70.93     6652.449     1.587     1.566     227.8949  18.4925        122
 4.80   0.1602    571.7554     45.6411  63.91     1545.242     1.743     1.230     228.0157  20.0775        123
 4.75   0.1475    571.9938   1447.6349  17.02     1678.479     1.936     1.347     228.0343  19.9877        124
 5.41   0.1645    565.7161    139.8198 -69.04     1504.548     0.941     0.673     227.9135  20.1065        125
 3.50   0.0268    581.4632    144.8293 -62.40     9243.258     1.657     1.558     227.9785  18.1354        126
 3.50   0.0270    582.9963    319.0084 -53.22     9186.344     1.652     1.592     228.0714  18.1421        127
 3.50   0.0005    631.9548    483.1556 -53.47     545836.6     2.703     2.536     228.0064  13.7073        128
 5.78   0.1170    575.6501   1336.6445 -73.37     2116.024     1.283     1.093     227.9878  19.7362        129
 7.40   3.0285    577.1536   1001.2869 -58.48     81.75117     0.881     0.595     227.9785  23.2688        130
 5.06   0.0457    597.7562    782.5263 -44.52     5418.224     2.724     2.576     227.9507  18.7154        131
 5.10   2.7881    585.4762     75.9200  -0.33      88.8031     1.098     0.936     227.9878  23.1789        132
 5.00   0.2585   1000.7210   1273.7208 -39.34     957.9202     1.144     1.095     228.0064  20.5967        133
 5.97   0.3391   1598.2085    655.0115 -35.87     573.4482     1.534     1.035     179.0377  21.1538        134
 5.89   0.1571   1595.7100    374.0864 -77.66      1353.35     0.996     0.765     195.7737  20.2215        135
 5.78   1.8394    965.9652    416.2867 -79.61     134.5602     0.732     0.686     227.9135  22.7277        136
 6.15   0.2955    952.0816    654.2863  50.14     837.6987     1.032     0.904     227.9692  20.7423        137
 5.27   4.9532    948.7292    445.0576 -10.29     49.98096     0.736     0.667     227.9599  23.8030        138
 4.35   0.1440    939.9413   1067.0511 -70.41     1719.028     1.362     1.231     227.9692  19.9618        139
 7.65   0.2712    939.0228    516.0239  42.70     913.3091     0.900     0.531       228.09  20.6485        140
 3.50   0.0174    930.5162   1178.4572 -74.12     14198.28     1.719     1.674     227.9785  17.6694        141
 4.68   0.2154    929.1131   1322.3604 -58.76     1149.374     1.197     1.136     227.9507  20.3988        142
 4.76   0.4758    913.6943    838.5510  -0.76      520.332     1.175     1.096     227.9785  21.2593        143
 5.71   0.4363    913.0289   1000.9688  21.72     567.7512     0.786     0.778     228.0992  21.1646        144
 7.36   0.7574    905.2064   1315.0332  37.37      326.995     0.941     0.465     228.0435  21.7636        145
 3.50   0.0455    901.2192    302.7968 -56.43     5439.779     1.598     1.493     228.0528  18.7110        146
 3.50   0.0003    882.8276    183.6549 -39.32     979829.2     3.919     3.518     228.0157  13.0721        147
 5.21   0.2352    897.0114    538.4737   4.14     1052.715     1.584     1.338     227.9878  20.4942        148
 6.81   4.6868    894.8954   1425.8496 -46.45     52.82196     0.836     0.667     227.9599  23.7430        149
 4.83   0.0422    880.0612    224.4287  89.40     5874.293     6.562     1.705     228.0064  18.6276        150
 3.50   0.0022    881.0674   1592.5128 -60.01     106895.1     2.043     1.933     213.5013  15.4776        151
 6.36   0.3332    889.6176    325.1285  22.79     743.0607     1.309     0.828     227.9785  20.8724        152
 5.72   0.4667    886.5520   1500.2416  80.29     530.5775     1.169     1.105     228.0157  21.2381        153
 6.10   0.4512    886.5384   1304.6620  66.27     548.7366     1.188     0.961     227.9692  21.2016        154
 6.94   0.4179    885.8094    339.1945 -44.36     592.6599     0.774     0.566     228.0807  21.1180        155
 6.29   0.1908    878.8572   1176.9626  70.73     1297.465     1.518     1.189     228.0064  20.2673        156
 5.06   0.3512    878.3696    960.6808  48.92     704.9158     1.058     0.941     227.9414  20.9297        157
 6.16   0.6663    877.6598    541.6873 -46.29      371.616     0.571     0.336     227.9878  21.6248        158
 4.70   0.0988    870.2359   1103.6483 -67.14     2505.909     1.791     1.565     228.0064  19.5526        159
 3.50   0.0009    860.0745   1224.5040 -47.86     268745.9     2.220     2.101     227.9785  14.4766        160
 6.18   0.3186    868.7445    939.5904  23.21     777.2598     1.548     1.093     228.0435  20.8236        161
 7.42   2.2782    870.4847    643.4907 -44.26     108.6665     0.503     0.497     227.9599  22.9598        162
 4.93   0.2361    860.3788   1157.4387   2.85       1049.2     1.270     1.034     228.0714  20.4979        163
 6.19   1.1699    859.1392   1339.7198 -63.00     211.6237     1.222     0.856     227.9692  22.2361        164
 7.18   0.1252    845.4885   1206.4347 -40.40     1976.214     1.106     0.846     227.9042  19.8104        165
 5.39   0.8008    845.7783   1063.5769 -17.74     309.3109     0.962     0.946     228.0714  21.8240        166
 5.13   0.2461    844.0469   1106.1366  18.76     1006.071     1.371     1.162     227.9599  20.5434        167
 5.79   0.1042    838.6966   1247.0575 -30.24     2375.567     1.687     1.411     227.9414  19.6106        168
 3.68   0.2133    837.3986    298.7006 -41.02     1160.491     1.274     1.135     227.9042  20.3884        169
