#   1 KRON_RADIUS            Kron apertures in units of A or B                         
#   2 Y_IMAGE                Object position along y                                    [pixel]
#   3 MAG_BEST               Best of MAG_AUTO and MAG_ISOCOR                            [mag]
#   4 FLUX_BEST              Best of FLUX_AUTO and FLUX_ISOCOR                          [count]
#   5 X_IMAGE                Object position along x                                    [pixel]
#   6 THETA_IMAGE            Position angle (CCW/x)                                     [deg]
#   7 A_IMAGE                Profile RMS along major axis                               [pixel]
#   8 B_IMAGE                Profile RMS along minor axis                               [pixel]
#   9 MAGERR_BEST            RMS error for MAG_BEST                                     [mag]
#  10 NUMBER                 Running object number                                     
#  11 FLUXERR_BEST           RMS error for BEST flux                                    [count]
 3.61     53.5252  16.5377     40265.38     63.7997  -3.90     4.685     4.247   0.0043          1     158.6233
 3.60     17.1269  18.6087     5977.595    985.1923 -87.68     4.346     1.817   0.0181          2     99.64371
 3.50     18.1446  19.1436     3652.279     91.5192 -68.12     1.481     1.375   0.0147          3      49.3555
 3.50     15.3536  18.0343     10146.07   1445.8591 -71.14     1.634     1.584   0.0059          4     55.52927
 7.98     13.6931  21.5329     404.4124    841.9979 -72.76     1.135     0.458   0.1542          5     57.43993
 6.92      4.0879  21.3815     464.9615    145.5426  70.74     1.217     0.921   0.1496          6     64.03948
 3.50    182.5938  13.6279     587293.1   1107.5367 -37.44     5.950     5.006   0.0003          7     188.3089
 5.26     10.5726  22.2770     203.7904   1183.7943  -6.90     0.958     0.485   0.1872          8     35.11979
 3.50     60.3875  16.3571     47551.46   1078.6909  79.25     2.045     1.844   0.0015          9      66.8661
 5.43     17.6537  21.4152     450.7367    385.0799 -14.05     1.203     0.929   0.1364         10     56.62897
 4.96     24.8541  20.6520     910.3619    367.3887 -86.69     1.250     1.183   0.0713         11     59.80685
 4.53     24.3010  21.5329     404.4188    383.1667 -40.04     1.084     0.951   0.1211         12     45.11219
 7.23     24.3144  22.9943      105.262    699.3123 -45.11     0.560     0.342   0.3138         13     30.41463
 6.22     35.9995  21.3288     488.0728   1110.7292 -83.70     1.298     0.963   0.1518         14     68.23551
 6.32     26.7504  22.8474      120.517    703.2515 -18.89     0.856     0.351   0.3044         15     33.77714
 6.70     26.6736  23.2863     80.44238    531.3240  45.12     0.570     0.337   0.3895         16     28.85386
 5.92     32.4863  22.0445     252.4594   1109.5005 -23.32     1.065     0.802   0.1691         17     39.29971
 5.25     33.6167  21.8664     297.4628    327.2390 -61.74     1.084     0.801   0.1756         18     48.08976
 5.09     39.6455  21.5741     389.3678   1170.9567 -85.60     1.099     0.966   0.1411         19     50.58957
 6.35     38.0633  21.9922     264.9186   1521.8109  -9.34     0.915     0.741   0.2086         20     50.89342
 6.24     44.6940  21.7262     338.4695    440.4556 -55.17     1.104     0.815   0.1886         21     58.76665
 3.50     80.4046  16.4156      45057.5    537.8243 -86.01     1.911     1.773   0.0015         22     63.31311
 6.15     42.8763  21.8548      300.666    915.6876   9.79     0.989     0.752   0.1903         23     52.67969
 7.49     51.1983  22.2222     214.3445   1435.1534  46.45     0.751     0.565   0.2404         24     47.44423
 7.11     51.2205  22.1614     226.6852    265.1693 -11.77     1.187     0.344   0.2178         25     45.45267
 3.50     75.3237  20.0708     1554.847    128.3723 -79.51     1.370     1.250   0.0313         26     44.76913
 9.47     65.4919  21.9592     273.0931   1147.4990 -44.71     0.503     0.497   0.1874         27     47.11815
 4.62     82.5204  21.2761     512.3506    421.9448 -60.87     1.433     1.080   0.1200         28     56.62897
 7.35     72.5246  22.6908     139.2156   1322.9462 -32.29     0.791     0.315   0.2873         29     36.83395
 5.03     90.8113  20.5469     1002.882    377.1675 -11.16     1.789     1.450   0.0867         30     80.08546
 3.50    122.2698  15.9706     67880.02    789.3429 -84.85     1.978     1.874   0.0011         31     66.40335
 3.93    235.4554  16.3767     46701.84    403.5172 -57.68     6.084     5.378   0.0051         32     221.2826
 3.50     96.7895  19.5970     2405.411     56.3872 -57.13     1.500     1.435   0.0227         33     50.28389
 6.73     92.0598  21.8182     310.9749    496.0466  41.74     0.813     0.749   0.1840         34     52.67969
 4.76     98.5079  21.2994     501.4523    453.0963 -13.59     1.273     0.993   0.1135         35     52.38621
 6.76     96.0782  21.9189     283.4167   1076.6273  21.71     0.958     0.687   0.2041         36     53.26181
 6.06    103.0046  22.2862     202.0819    518.0137 -42.61     0.901     0.528   0.2233         37      41.5543
 6.47    107.5073  22.9425     110.4091   1099.5221  45.50     0.512     0.487   0.3090         38      31.4121
 4.57    117.3928  22.2778     203.6493     68.1370 -13.99     1.221     0.695   0.2196         39     41.18161
 7.98    115.2657  22.0498     251.2405    415.9847 -55.24     0.810     0.494   0.2106         40     48.72674
 6.19    117.2545  22.2097     216.8356    990.6464  -7.63     0.905     0.753   0.2518         41     50.28389
 5.71    118.0163  22.5661     156.1562    153.5004 -87.61     0.784     0.499   0.2473         42     35.55608
 3.50    193.9391  14.3786     294142.8    318.2505 -63.89     2.285     2.063   0.0003         43     74.50034
 8.63    126.5118  21.7812       321.74    494.9810  -0.47     0.807     0.500   0.1798         44     53.26181
 5.92    131.3040  22.3555     189.5822    418.1985 -28.57     0.847     0.599   0.2380         45      41.5543
 3.50    163.0547  16.5898     38376.02   1468.4854 -77.89     1.817     1.736   0.0017         46     61.83478
 5.11    147.4694  21.8706     296.3191    354.2550 -83.24     0.993     0.939   0.1774         47     48.40929
 7.55    142.6608  22.5931     152.3268    886.6586 -44.91     0.583     0.330   0.2375         48     33.31756
 3.50    170.6976  18.2190     8558.202    877.4740 -82.76     1.685     1.611   0.0072         49     56.62897
 7.93    152.4654  22.5091     164.5687   1280.4971 -39.37     0.502     0.496   0.2642         50     40.04273
 8.17    156.3305  22.8736      117.637     82.7033  46.84     0.560     0.342   0.3282         51     35.55608
 5.02    165.8473  20.8551       755.01   1445.8843 -42.75     1.240     1.109   0.0830         52     57.70771
 5.09    171.8127  20.3430     1210.079    325.7209 -60.90     1.329     1.208   0.0570         53     63.55616
 4.60    167.1095  21.1416     579.9175    104.6249 -16.53     1.177     1.086   0.0942         54     50.28389
 5.16    170.3085  21.8272      308.395   1369.2546  11.39     0.933     0.849   0.1624         55     46.12608
 6.11    169.5062  22.2920     201.0074    649.7439  -4.65     1.395     0.489   0.2700         56     49.97635
 5.71    187.0440  21.5398     401.8767   1355.0319  10.77     1.219     0.995   0.1651         57      61.0822
 8.07    180.5658  21.8608     299.0172    575.6987  -8.34     1.000     0.479   0.2007         58     55.25093
 4.11    193.3761  20.6343      925.281   1350.8151  77.63     1.280     1.103   0.0564         59     48.08976
 4.47    211.1837  18.7871     5071.588    828.1095  -6.37     4.024     2.098   0.0273         60     127.7173
 4.64    229.2693  19.9657     1712.911    415.5566 -12.72     1.791     1.563   0.0333         61     52.51613
 6.31    195.2809  22.1520     228.6571    268.1735  54.63     1.080     0.517   0.2175         62     45.79061
 7.79    192.6325  22.5777     154.4982   1028.2732  49.79     0.563     0.337   0.2438         63     34.67802
 3.52    207.1272  19.9191     1787.908    549.4011 -85.19     1.443     1.315   0.0290         64     47.76809
 4.96    230.4931  18.8445     4810.656    562.4095 -38.65     3.467     3.264   0.0372         65     164.6328
 4.21    209.0113  20.5654     985.9495    350.0247  44.45     1.813     1.239   0.0695         66     63.06913
 5.59    203.8939  21.6763     354.3955    251.0272  -0.79     0.916     0.839   0.1464         67     47.76809
 3.50    212.8764  19.9922     1671.563   1306.2999 -66.83     1.376     1.279   0.0300         68     46.12608
 5.36    211.2034  21.2040     547.5409    684.8726 -50.29     1.239     1.146   0.1251         69     63.06913
 7.82    205.6722  22.6329     146.8385    936.9929  28.33     0.908     0.212   0.2532         70     34.23054
 3.50    260.3650  15.5064     104101.8    997.5744 -89.34     2.022     1.934   0.0007         71     68.00919
 3.50    224.7346  19.7492     2090.888   1226.3085  86.64     1.413     1.348   0.0248         72     47.76809
 5.38    223.0306  20.9542     689.1849    346.1969  57.86     1.492     1.352   0.1180         73     74.91308
 7.66    210.2872  22.6423     145.5715   1225.3633 -41.37     0.568     0.336   0.2451         74     32.85156
 4.34    222.8820  20.8308     772.1014    775.2977 -78.87     1.280     1.148   0.0733         75     52.09107
 6.89    217.8561  21.9007     288.2296    741.8887 -45.39     0.846     0.652   0.1906         76     50.58957
 3.50    266.1625  15.7000      87100.3     67.8013 -78.87     2.007     1.911   0.0008         77     67.55428
 6.02    230.7153  21.8812      293.449    548.0768 -73.40     1.026     0.744   0.1917         78     51.79425
 4.97    244.2989  20.1594     1433.013    113.0351 -89.52     1.867     1.582   0.0631         79     83.29391
 6.85    228.3499  23.1572     90.59973    325.3205 -46.24     0.579     0.332   0.3459         80     28.85386
 4.88    239.7767  21.0770     615.4634    838.7070 -46.60     1.390     1.053   0.1028         81     58.23959
 4.49    255.8108  19.0628     3934.325    613.0906 -16.68     2.447     2.040   0.0272         82     98.55468
 6.14    252.4413  20.8275     774.4404   1372.7426  66.47     1.567     1.194   0.1155         83     82.36322
 3.50    312.5552  14.1601     359723.1    439.6983 -66.16     2.221     2.106   0.0002         84     74.70699
 5.80    250.5133  21.2166     541.2048    107.6803  -1.66     1.169     0.968   0.1226         85      61.0822
 3.85    254.3401  22.0433     252.7374   1352.6882 -48.20     0.991     0.851   0.1509         86     35.11979
 3.50    288.3568  17.2756     20406.22   1486.6270  88.49     1.750     1.711   0.0032         87     59.80685
 7.01    261.7161  22.7063       137.24   1017.6207 -40.76     0.573     0.332   0.2325         88     29.38333
 3.50    282.6521  18.9252     4465.994   1522.5603 -45.72     1.536     1.456   0.0124         89     51.19546
 8.00    265.6608  22.4623     171.8296    124.3059  46.63     0.568     0.338   0.2220         90     35.11979
 5.77    271.4204  21.5367     403.0232   1274.2327  29.10     1.178     0.848   0.1519         91     56.35606
 3.67    290.2191  19.9148       1795.1    515.3969  85.02     1.844     1.582   0.0374         92     61.83478
 3.50    303.3994  17.6218     14835.02    202.0118  82.60     1.763     1.645   0.0042         93     57.97426
 3.50    319.2488  16.1106     59668.66    905.5974  80.63     1.946     1.866   0.0012         94     65.93736
 4.78    297.8040  20.3717     1178.461   1414.2720 -43.77     2.633     1.331   0.0807         95     87.62371
 3.50    352.0961  14.3338     306532.5   1346.0428 -62.22     2.170     2.083   0.0003         96      73.6679
 3.50    294.7164  19.8763     1859.793   1327.7196 -86.02     1.404     1.318   0.0275         97     47.11815
 4.85    294.3491  20.4958     1051.143   1475.7775 -26.98     1.406     1.221   0.0644         98     62.33145
 3.50    351.8862  14.2953     317590.4    890.9661 -48.11     2.210     2.098   0.0003         99     74.50034
 3.85    302.8273  20.8684      745.819    563.8398  35.57     1.489     1.289   0.0776        100     53.26181
 7.45    292.9918  22.1636     226.2288    249.2462 -84.22     0.734     0.686   0.2501        101     52.09107
 6.35    296.7082  22.2570     207.5863    886.8599 -66.54     1.060     0.510   0.2396        102     45.79061
 4.66    308.9450  21.0894     608.4763     85.4247  81.50     1.830     0.952   0.1077        103     60.32023
 3.50    322.5602  18.0696     9821.449    697.4584 -78.02     1.679     1.574   0.0062        104     55.80622
 3.97    322.5329  20.7578     825.8406    641.5955 -74.02     2.010     1.387   0.0864        105     65.70312
 5.06    328.0034  19.7483     2092.576    595.6755  -7.63     1.719     1.644   0.0437        106     84.21431
 6.81    324.7242  21.7679     325.7097    956.5848  54.09     1.433     0.635   0.2143        107     64.27978
 7.38    323.7076  22.8253     122.9962   1017.3156  43.59     0.551     0.345   0.2774        108      31.4121
 3.71    346.8928  18.5041     6582.254    867.3059 -40.48     1.647     1.638   0.0099        109     60.06409
 4.44    330.2252  21.8072     314.1427   1546.3762 -51.83     0.998     0.891   0.1411        110     40.80552
 3.94    332.4190  21.6774     354.0173     93.4353  42.24     1.047     0.837   0.1143        111     37.25017
 3.50    335.8508  21.7803     322.0078   1440.7502  24.85     1.151     0.758   0.1076        112     31.89914
 3.50    356.1431  18.7335     5328.272    432.0551 -89.14     1.888     1.652   0.0123        113     60.57528
 3.50    350.3318  20.8023       792.63     55.0058  86.07     1.201     1.105   0.0533        114     38.87049
 7.33    339.7777  22.3788     185.5558    806.0276   1.14     0.693     0.416   0.2298        115     39.26513
 3.50    368.6249  18.0334     10154.03    761.3643  82.59     1.702     1.579   0.0060        116     56.35606
 5.40    350.2334  21.7538     329.9774    920.3484 -54.39     1.033     0.933   0.1714        117     52.09107
 3.71    361.9805  19.9153     1794.202   1500.6205  73.48     1.407     1.364   0.0308        118     50.89342
 3.50    367.8328  19.1430     3654.215    443.0886  66.09     1.473     1.415   0.0147        119      49.3555
 3.50    360.0383  21.8171      311.286    533.1404  53.71     1.212     0.893   0.1240        120     35.55608
 3.50    395.4884  16.2904      50565.8    231.6743  77.54     1.949     1.840   0.0014        121     65.70312
 3.50    361.4562  21.4794     424.8612   1034.1250  21.17     1.190     0.929   0.0909        122     35.55608
 6.07    357.0000  23.0273     102.1082   1399.0023   0.00     0.842     0.289   0.3180        123     29.90343
 5.90    364.3918  21.6770     354.1499   1415.6382 -43.63     1.026     0.877   0.1720        124     56.08181
 6.06    375.4305  20.5550     995.3855    753.5044  47.83     2.366     1.003   0.1003        125      91.9173
 4.48    373.2975  20.8930     729.1144    992.6573   6.59     1.311     1.220   0.0839        126     56.35606
 5.11    369.6660  22.3817      185.067    210.6798 -69.78     0.990     0.578   0.2234        127     38.06895
 5.36    370.6648  21.8128     312.5117     71.8415  76.54     1.017     0.737   0.1580        128     45.45267
 4.60    374.4050  21.9880     265.9463   1083.9834 -89.05     1.044     0.771   0.1697        129      41.5543
 3.50    397.8773  18.3874     7329.117   1461.4524 -73.83     1.683     1.551   0.0081        130     54.68999
 6.34    375.0100  22.6091     150.0951    141.2270 -89.55     0.680     0.419   0.2444        131     33.77714
 3.50    398.5048  18.2804     8088.249    354.8107  89.99     1.686     1.552   0.0076        132     56.62897
 6.26    376.0063  22.4738     170.0165     87.8118 -52.47     0.954     0.458   0.2582        133     40.42592
 5.17    380.5817  21.8151     311.8577    125.9786 -78.94     0.942     0.867   0.1618        134     46.45912
 4.87    383.4047  21.8123      312.658     67.5940  51.58     1.166     0.773   0.1579        135     45.45267
 6.30    380.9717  22.9089     113.8815      1.0000  90.00     0.847     0.289   0.2368        136     24.83344
 3.50    394.2598  20.0324     1610.813   1089.0247  67.79     1.420     1.253   0.0313        137     46.45912
 3.50    420.0205  16.3963     45864.02    433.5898  79.89     1.848     1.767   0.0015        138     62.57831
 3.50    416.0988  17.1873     22134.43    837.6166 -86.61     1.792     1.690   0.0030        139     60.82927
 5.53    396.8589  20.8799     737.9701    627.2267 -12.08     1.608     1.284   0.1153        140     78.33368
 4.50    389.8943  22.5034      165.439   1195.7992 -50.03     0.822     0.669   0.2217        141     33.77714
 8.72    390.0220  22.3681     187.3942    261.4804 -58.26     0.807     0.309   0.2493        142     43.01279
 6.22    396.7586  21.5823     386.4556    978.6519 -25.08     1.383     0.713   0.1709        143     60.82927
 6.58    391.6644  23.0896     96.41772     97.3347  45.04     0.579     0.332   0.3250        144     28.85386
 5.61    404.1374  21.2890     506.3088    526.9224  49.64     1.603     1.010   0.1511        145     70.45875
 6.67    411.6898  21.6813     352.7761      1.4600  86.90     1.550     0.492   0.1451        146     47.11815
 3.50    424.7323  19.0556     3960.707    926.6381 -83.30     1.552     1.505   0.0143        147     52.09107
 5.70    421.6084  20.2631      1302.42    159.7319  45.81     1.934     1.613   0.0826        148     99.02287
 6.29    407.8483  22.1858      221.661    282.1894  43.70     0.805     0.666   0.2243        149     45.79061
 3.50    461.6982  15.1557     143787.6    807.8332 -72.06     2.072     2.019   0.0005        150     70.23959
 3.50    438.2123  17.5067     16493.55    252.2797  71.34     1.794     1.732   0.0040        151     60.82927
 6.83    416.1235  21.9304     280.4324    561.2371  81.87     1.063     0.655   0.2182        152     56.35606
 6.81    412.3987  22.5954      152.005    189.2176  18.91     0.761     0.447   0.2777        153     38.87049
 7.29    419.3941  21.5167     410.5093   1204.7341 -18.47     1.037     0.771   0.1707        154     64.51918
 8.30    415.4966  22.2468     209.5378   1562.4846 -45.54     0.506     0.494   0.2075        155     40.04273
 7.32    422.0081  20.8639     748.8981    138.2387  -1.36     1.617     0.766   0.1161        156     80.08546
 6.22    445.3532  20.3431     1209.886    122.5160 -51.84     1.522     1.288   0.0774        157     86.20461
 5.57    427.3903  21.0882     609.1497   1180.0702  59.62     1.461     1.192   0.1291        158     72.40131
 6.23    419.7381  21.9051     287.0488    774.3480  -8.83     0.879     0.745   0.1843        159     48.72674
 5.34    420.9765  22.3162     196.5784   1580.9352 -64.56     0.780     0.777   0.2254        160     40.80552
 5.10    424.7009  22.0619     248.4485   1064.2546 -84.34     0.920     0.761   0.1816        161      41.5543
 3.81    433.7247  20.3374      1216.25   1422.1829 -15.53     1.403     1.231   0.0435        162     48.72674
 3.98    434.2644  21.2295      534.833    151.1989 -81.63     1.227     1.041   0.0888        163     43.72379
 4.39    426.8933  22.1313     233.0707   1009.4892 -40.48     0.884     0.670   0.1552        164     33.31756
 6.57    427.1862  22.0708      246.426    300.2596  41.78     0.765     0.551   0.1880        165     42.65284
 5.00    424.7631  23.1135     94.31982   1086.0087   0.40     0.692     0.425   0.2999        166     26.04554
 8.45    430.6999  20.8349     769.1937    718.6637 -23.16     1.415     0.741   0.1192        167     84.39719
 4.80    468.3481  18.1965     8737.614    850.8901  23.15     7.879     2.083   0.0238        168     191.5559
 3.50    450.5656  18.8124     4954.992     21.6386 -76.96     1.584     1.465   0.0115        169     52.38621
