#   1 KRON_RADIUS            Kron apertures in units of A or B                         
#   2 MAGERR_APER            RMS error vector for fixed aperture mag.                   [mag]
#   3 Y_IMAGE                Object position along y                                    [pixel]
#   4 X_IMAGE                Object position along x                                    [pixel]
#   5 THETA_IMAGE            Position angle (CCW/x)                                     [deg]
#   6 FLUX_APER              Flux vector within fixed circular aperture(s)              [count]
#   7 A_IMAGE                Profile RMS along major axis                               [pixel]
#   8 B_IMAGE                Profile RMS along minor axis                               [pixel]
#   9 FLUX_RADIUS            Fraction-of-light radii                                    [pixel]
#  10 FLUXERR_APER           RMS error vector for aperture flux(es)                     [count]
#  11 MAG_APER               Fixed aperture magnitude vector                            [mag]
#  12 NUMBER                 Running object number                                     
 4.06   0.0058     54.8102     63.6162   7.95     25714.96     4.204     3.866     12.369     137.4686  17.0245          1
 4.70   0.0357     18.1055    984.9224 -87.76     4181.735     3.562     1.819      8.745     137.4219  18.9966          2
 3.50   0.0429     19.5111     91.2539 -74.58     3475.168     1.594     1.593      4.820     137.4374  19.1976          3
 3.56   0.0164     16.2668   1445.6176   5.53     9106.784     1.890     1.805      4.950     137.5464  18.1516          4
 4.37   0.2218     26.1560    366.6079  16.67     673.5798     1.016     0.880      3.672     137.5619  20.9790          5
 3.50   0.0036     61.3924   1078.3998  50.84     41839.26     2.294     2.198      5.471      137.453  16.4960          6
 3.50   0.0037     81.5718    537.4313  -5.04     40444.07     2.231     2.187      5.340     137.5619  16.5329          7
 3.50   0.0002    183.5919   1107.5521 -24.07     910776.5     4.890     4.553      8.968     137.5775  13.1515          8
 3.90   0.1000     76.6700    128.0600  63.24     1492.613     1.316     1.219      4.348     137.4841  20.1151          9
 3.50   0.0025    123.3897    788.9986  15.16     60282.77     2.311     2.260      5.532     137.4841  16.0995         10
 4.09   0.0747     98.1763     56.0645  12.14      2000.36     1.461     1.381      4.843     137.5464  19.7972         11
 8.72   0.2700     99.7577    453.0021   0.10     553.3604     0.695     0.428      4.169     137.5619  21.1925         12
 3.50   0.0006    195.1722    317.9897 -45.18       256650     2.614     2.518      5.786     137.5308  14.5266         13
 3.50   0.0044    163.8853   1468.2463   6.52     33876.64     2.168     2.119      5.364     137.4841  16.7252         14
 3.95   0.0194    171.8063    877.2582 -13.05     7714.895     1.849     1.810      5.260      137.593  18.3317         15
 6.26   0.4155    166.6234   1445.5895 -45.57      359.386     1.074     0.955      4.198     137.5153  21.6611         16
 6.27   0.0912    173.0470    325.1680  -4.64     1637.742     1.249     1.149      6.710     137.5619  20.0144         17
 7.19   0.3087    168.1921    104.1895  44.40     483.5575     0.754     0.563      4.221      137.453  21.3389         18
 4.85   0.0063    236.3907    403.5207 -42.71      23660.1     5.571     4.586     18.505     137.5308  17.1150         19
 6.14   0.1765    194.1268   1350.6166  55.74     846.8444     1.147     1.041      6.051     137.6086  20.7305         20
 5.77   0.0472    212.2842    827.3955  -7.78     3162.478     3.064     1.803     10.584     137.4997  19.2999         21
 5.10   0.0939    208.3243    548.9987  14.64     1591.339     1.403     1.345      5.357     137.5619  20.0456         22
 6.34   0.1503    210.3540    349.7424  51.36     993.8059     1.187     1.029      6.377     137.4997  20.5567         23
 3.83   0.1032    213.7674   1306.0284  -4.51      1446.81     1.489     1.313      4.646     137.5464  20.1490         24
 9.38   0.3431    212.9898    684.5063 -57.67     435.0976     0.791     0.316      4.744     137.4686  21.4535         25
 3.50   0.0013    261.3132    997.3710 -23.07     113274.5     2.403     2.367      5.655     137.4997  15.4147         26
 6.49   0.0594    231.9824    561.7929   6.10     2514.891     2.483     2.286     12.572     137.4686  19.5487         27
 4.02   0.1008    225.6863   1226.0515  38.45     1480.636     1.477     1.312      4.289      137.453  20.1239         28
 6.12   0.4961    224.2461    774.5557 -15.37     301.1632     1.009     0.965      5.012     137.5775  21.8530         29
 3.50   0.0019    267.4353     67.6016  -3.84     76629.04     2.371     2.303      5.721     137.4997  15.8390         30
 7.01   0.1123    245.6219    113.0311 -81.84     1329.391     1.356     1.122      6.611     137.5153  20.2409         31
 5.62   0.0472    256.8119    612.8681 -22.48     3164.133     2.112     1.770      7.803      137.593  19.2994         32
 7.99   0.3415    253.1951   1372.6124 -71.84     437.0877     0.758     0.448      4.548      137.453  21.4486         33
 3.50   0.0005    313.6460    439.4265 -24.89       314198     2.632     2.551      5.785     137.5775  14.3070         34
 3.50   0.0085    289.1028   1486.3685  -1.22     17645.21     2.022     1.962      5.167     137.4063  17.4334         35
 4.05   0.0408    283.4547   1522.2284  -4.74     3664.912     1.677     1.596      4.584     137.5619  19.1398         36
 5.18   0.0919    291.1014    514.9318 -18.94     1624.123     1.625     1.502      5.718      137.453  20.0235         37
 3.61   0.0112    304.6104    201.7310  31.11     13384.74     1.979     1.947      5.367      137.593  17.7335         38
 3.50   0.0028    320.2000    905.3687  10.23     53077.07     2.242     2.205      5.577     137.4841  16.2377         39
 4.85   0.1022    295.4975   1327.5172 -13.90     1459.094     1.372     1.364      5.596     137.3752  20.1398         40
 6.62   0.2283    294.9007   1475.5369 -74.29     653.8261     1.173     0.974      4.831      137.453  21.0113         41
 3.50   0.0005    352.8514    890.7111 -28.70     277192.4     2.568     2.504      5.763     137.4374  14.4430         42
 3.50   0.0006    352.8624   1345.7847 -23.23     267597.2     2.524     2.493      5.707     137.5153  14.4813         43
 8.97   0.1607    299.3999   1412.7705 -18.71     929.1234     0.759     0.449      4.552      137.453  20.6298         44
 3.75   0.0174    323.5458    697.2219   5.39     8581.356     1.928     1.868      5.375     137.5775  18.2161         45
 7.68   0.2025    303.9609    563.0087   0.52      737.614     1.078     0.725      4.470     137.5464  20.8804         46
 5.80   0.0963    328.9993    595.2292 -20.45     1550.774     1.631     1.429      7.305      137.453  20.0736         47
 9.34   0.2651    322.4987    641.4872  45.81     562.8337     0.503     0.497      3.017     137.3752  21.1740         48
 4.63   0.0239    347.9163    866.9841  39.24     6242.486     1.830     1.739      6.430     137.5464  18.5616         49
 7.46   1.2968    333.5166     93.5302  48.31     115.0725     0.502     0.497      3.013     137.4063  22.8976         50
 4.55   0.0312    357.2899    431.7542 -86.08     4780.321     1.966     1.846      6.183     137.4374  18.8514         51
 6.03   0.1414    351.3906     54.6137  40.34     1055.686     1.061     0.951      4.772     137.4686  20.4912         52
 4.15   0.0164    369.6064    761.0257  39.72     9104.054     1.902     1.847      5.522     137.5308  18.1519         53
 5.27   0.0988    362.6790   1500.2339  23.19     1511.542     1.478     1.287      5.118     137.4841  20.1014         54
 4.23   0.0470    368.8589    442.7273   2.26     3174.472     1.676     1.588      5.350      137.453  19.2958         55
 7.68   1.8615    361.9861   1033.5194 -89.92     80.24541     0.798     0.500      3.480     137.5464  23.2889         56
 3.50   0.0034    396.6423    231.3586   5.16     44384.33     2.248     2.188      5.602     137.5308  16.4319         57
 6.69   0.2439    374.2293    992.4621  -0.46     612.4906     0.965     0.724      4.497     137.5308  21.0823         58
 3.62   0.0247    398.5532   1461.1105  -0.57     6049.593     1.792     1.725      4.986     137.4374  18.5957         59
 3.57   0.0216    399.5710    354.4686  18.77     6922.178     1.831     1.777      4.772     137.5308  18.4494         60
 4.49   0.1116    395.4066   1088.5164 -42.15     1338.629     1.369     1.352      4.637     137.4997  20.2333         61
 3.50   0.0037    421.0752    433.2244  16.34     40643.84     2.212     2.168      5.555     137.5153  16.5275         62
 3.50   0.0076    417.0695    837.3176  35.07     19623.35     2.038     2.017      5.333     137.4063  17.3181         63
 7.26   0.1277    414.4749      1.5991 -88.23     900.4293     1.572     0.613      6.781     105.9064  20.6639         64
 4.05   0.0460    425.6546    926.3806  22.64     3249.719     1.672     1.608      5.055     137.5619  19.2704         65
 3.60   0.0102    439.4595    252.0048  10.36     14601.76     2.018     1.955      5.307     137.6086  17.6390         66
 7.26   0.1602    422.0591    159.4032  64.92     932.7838     1.300     0.858      6.215     137.6086  20.6255         67
 3.50   0.0012    462.6514    807.5664  -4.64     125512.4     2.400     2.356      5.787     137.5619  15.3033         68
 5.74   0.1246    434.3322   1421.9010  11.76     1198.321     1.245     1.134      5.242      137.453  20.3536         69
 7.77   0.2557    435.2876    151.0216   3.41     583.9994     0.735     0.683      4.408     137.5153  21.1340         70
 4.32   0.0332    451.8255     21.2910 -11.88     4499.188     1.771     1.671      5.701     137.4686  18.9172         71
 5.78   0.2421    441.5108    305.5070 -83.02     616.2609     0.924     0.898      3.014     137.4063  21.0756         72
 7.34   0.2044    446.8344    122.0894 -82.33     730.2853     1.148     0.731      4.663      137.453  20.8913         73
 4.33   0.0298    459.2914     34.4861 -51.43     4999.624     1.743     1.673      5.429     137.3752  18.8027         74
 5.74   0.0399    469.2626    850.4149  22.43     3745.904     5.847     1.730     21.673     137.5153  19.1161         75
 9.44   0.1738    448.6069    883.8131  18.70     858.8336     0.775     0.444      4.649     137.4219  20.7152         76
 3.80   0.0799    465.1890    468.4067  53.61      1867.71     1.531     1.320      4.695      137.453  19.8717         77
 6.35   0.2950    462.6235   1096.4197  11.00     506.2698     0.976     0.807      5.694     137.5153  21.2890         78
 4.43   0.0737    473.5376    734.7532  22.27     2026.457     1.505     1.391      4.981     137.4686  19.7832         79
 4.73   0.1074    472.9802    254.2992 -12.91     1389.864     1.391     1.194      4.835     137.4219  20.1926         80
 4.19   0.0534    479.3217    922.9229  32.84     2797.008     1.511     1.481      4.773     137.4686  19.4333         81
 5.93   0.1808    479.4613   1276.8489 -86.46     825.7337     1.230     1.100      5.135     137.4686  20.7579         82
 5.74   0.1044    514.6971   1309.9906   7.70      1429.86     1.319     1.171      5.924      137.453  20.1618         83
 4.12   0.1304    485.6152   1070.7526  -8.55     1145.807     1.321     1.259      4.652     137.5308  20.4022         84
 6.54   0.0892    497.5776     83.0067  66.37     1674.711     1.905     1.613      6.874     137.5153  19.9902         85
 6.64   0.0789    496.9010   1187.0255  -1.97     1891.267     1.974     1.349      7.796     137.4219  19.8581         86
 4.90   0.0114    534.4559    518.5499  34.05     13113.65     3.647     3.086     12.739     137.5153  17.7557         87
 3.67   0.0138    513.8845   1302.1998   8.49     10803.76     2.027     1.866      5.382     137.5153  17.9661         88
 7.04   0.1428    505.7164    762.5055 -85.19     1045.142     1.245     1.035      6.160     137.3907  20.5021         89
 5.97   0.2459    503.5783    863.4941  14.81     607.2473     0.923     0.889      4.873     137.4841  21.0916         90
 5.48   0.0681    516.8466   1461.0226  24.80     2194.976     2.970     1.347     11.294     137.5464  19.6964         91
 5.84   0.2067    515.1458   1179.0188 -47.25     722.8436     1.176     1.000      4.765     137.5619  20.9024         92
 7.91   0.2203    511.1125    165.8792  45.76     677.4138     0.843     0.671      5.055     137.4063  20.9729         93
 7.31   0.3208    520.8629    641.8719 -43.04     465.2818     0.842     0.676      4.818     137.4219  21.3807         94
 3.50   0.0005    589.2521   1315.8784 -32.82       288680     2.545     2.493      5.725     137.4374  14.3990         95
 3.92   0.1086    541.6472    999.7842  41.53     1375.353     1.306     1.290      4.350     137.5464  20.2040         96
 4.43   0.0722    560.3848   1041.6217  45.42     2068.381     1.536     1.379      5.078     137.4841  19.7609         97
 3.77   0.0237    573.9904   1242.7697  14.96     6297.988     1.808     1.724      4.993     137.5619  18.5520         98
 5.79   0.0981    572.9567   1447.7887  47.55     1522.577     1.602     1.416      7.374     137.5308  20.0936         99
 6.09   0.1015    572.8408     45.9018  54.29     1469.515     1.694     1.258      7.136     137.4063  20.1321        100
 3.82   0.0173    583.6829    319.1039  10.22     8616.239     1.937     1.850      5.643     137.3752  18.2117        101
 3.67   0.0170    582.1736    144.8848 -10.85     8802.197     1.949     1.806      5.427     137.4997  18.1885        102
 3.50   0.0003    632.6119    483.1479 -14.17     511399.1     2.723     2.636      6.024     137.5775  13.7781        103
 8.96   0.2504    566.4742    139.4969 -37.18     595.9138     0.501     0.498      3.005     137.4063  21.1120        104
 6.43   0.1348    576.0765   1336.7830  30.80     1108.375     1.349     1.065      5.540     137.5775  20.4383        105
 5.27   0.0369    598.0474    782.5241 -49.02     4040.049     2.863     2.518      9.754      137.453  19.0340        106
 6.31   0.3422    586.1059     75.9743   1.54     436.3156     1.004     0.858      4.072     137.4686  21.4505        107
 4.83   0.1610   1002.6642   1555.2805 -80.59     927.0547     1.320     1.123      4.544     137.4219  20.6322        108
 6.93   0.1595   1598.2859    654.0801  -4.44     774.6939     1.283     0.698      5.758      113.795  20.8272        109
 7.14   0.2324   1596.1770    374.0029  36.32     590.9896     0.939     0.470      3.178     126.4592  21.1210        110
 4.11   0.0498   1543.0918    134.7388  -2.70     2994.875     1.670     1.574      4.858     137.4686  19.3591        111
 4.75   0.1754    929.7796   1322.2466  36.33     851.7113     1.163     1.114      4.894     137.5464  20.7243        112
 0.00  99.0000    923.3777    806.9763  76.86    -186.7568     1.425     1.204    -40.068     137.5308  99.0000        113
 6.36   0.2216    914.1400    838.4391  67.51     674.1173     1.071     0.954      3.790     137.5308  20.9782        114
 7.87   0.3880    913.7532   1001.0084   0.41     385.0396     0.689     0.431      3.056     137.5775  21.5862        115
 4.08   0.0262    901.8284    302.6319  32.47     5707.021     1.843     1.740      5.443     137.5464  18.6590        116
 3.50   0.0002    883.3814    183.6500 -19.82     919420.9     3.195     3.079      6.272     137.5464  13.1412        117
 6.89   0.1404    897.2708    538.1027  69.70      1063.32     1.425     1.164      7.093      137.453  20.4833        118
 6.11   0.0370    880.5494    224.1360  88.64     4032.714     6.123     1.673     15.541     137.4841  19.0360        119
 3.50   0.0015    881.6226   1592.4487  65.69     101235.6     2.397     2.351      5.652     137.5464  15.5367        120
 8.03   0.1764    889.9066    325.8675 -44.75     846.1609     0.844     0.672      5.065     137.4374  20.7314        121
 4.70   0.2296    887.2526   1499.8967 -51.10     649.9191     1.068     1.005      3.769     137.3752  21.0179        122
 7.97   0.2472    887.0178   1304.5103  88.51     604.1274     0.805     0.500      3.917     137.4997  21.0972        123
 6.94   0.1424    880.0314   1176.7563 -66.77     1048.863     1.170     1.034      7.019     137.5775  20.4982        124
 7.44   0.2311    878.8286    960.8246  45.21     646.0983     0.766     0.569      4.417     137.5153  21.0243        125
 4.81   0.0601    870.8043   1103.4138 -32.93      2483.51     1.741     1.609      6.385     137.4686  19.5623        126
 3.50   0.0006    860.6582   1224.3918   9.72     252654.8     2.607     2.563      5.862     137.6086  14.5437        127
 7.51   0.1751    869.3853    940.0309  28.13     852.9769     1.297     0.789      6.471     137.5619  20.7227        128
 6.42   0.1541    861.3013   1157.3337  43.91     968.7964     1.024     0.870      5.497     137.4997  20.5844        129
 6.09   0.3179    859.8855   1339.4011 -27.27     469.7432     1.096     0.578      3.913     137.4997  21.3703        130
 7.01   0.1661    846.0428   1205.9912 -53.00     899.4311     0.803     0.795      4.818     137.5464  20.6651        131
 5.36   0.1471    844.5964   1106.1683  25.00     1015.214     1.276     1.066      4.908     137.5464  20.5336        132
 6.93   0.2995    846.1494   1063.8723  45.80     498.3734     0.835     0.668      4.469     137.4219  21.3061        133
 6.16   0.0790    839.1501   1247.1755 -29.21     1891.125     1.482     1.308      7.179     137.5775  19.8582        134
 4.70   0.0934    838.0167    298.7638   5.94     1599.862     1.395     1.172      5.044     137.5619  20.0398        135
 3.94   0.0257    824.4010    654.3109  37.31     5821.056     1.893     1.787      5.431     137.4997  18.6375        136
 3.65   0.0285    804.4127   1378.5909  18.36     5244.788     1.785     1.710      4.862      137.453  18.7507        137
 3.54   0.0100    799.9121    695.5764  88.77     14901.01     2.586     2.008      6.342     137.5153  17.6170        138
 4.21   0.0613    802.0409     41.0905 -21.87     2434.245     1.571     1.521      5.089      137.453  19.5841        139
 5.47   0.0650    775.2255   1427.2784 -85.98     2297.026     2.215     1.593      7.333     137.5153  19.6471        140
 5.37   0.1209    768.0120    391.6290  15.91     1235.478     1.314     1.196      4.459     137.5464  20.3204        141
 4.25   0.1094    744.2063    556.2775 -23.97     1365.037     1.405     1.311      5.064     137.5308  20.2121        142
 6.64   0.4881    739.1788   1157.6746  21.00     306.0497     0.921     0.685      3.440     137.5619  21.8355        143
 6.69   0.2453    737.1107    649.3793 -22.30     608.6886     0.925     0.684      4.176     137.4841  21.0890        144
 3.50   0.0004    725.5227    404.7261 -14.90     350716.5     2.719     2.589      5.973     137.4374  14.1876        145
 3.50   0.0025    727.9932    848.3524  23.62     60275.67     2.318     2.276      5.572     137.5775  16.0996        146
 5.28   0.1678    728.8334   1178.1766  42.38     890.0516     1.189     1.040      4.305     137.5308  20.6765        147
 5.28   0.1227    717.2914    808.3470  55.73     1216.412     1.312     1.312      4.829      137.453  20.3373        148
 4.44   0.1311    710.4481   1163.6825   4.86     1138.582     1.327     1.237      4.387      137.453  20.4091        149
 5.89   0.0990    705.5657   1338.9106 -81.17      1507.85     1.391     1.282      6.494      137.453  20.1041        150
 3.99   0.0658    704.2521    952.3856  34.75     2270.324     1.483     1.448      5.066     137.5775  19.6598        151
 8.02   0.1919    692.9650   1213.7378  65.54     778.3865     1.084     0.816      6.503     137.5153  20.8220        152
 4.46   0.0791    686.9780    644.0174  -9.45     1888.601     1.476     1.408      5.482     137.4997  19.8596        153
