#   1 KRON_RADIUS            Kron apertures in units of A or B                         
#   2 MAGERR_APER            RMS error vector for fixed aperture mag.                   [mag]
#   3 Y_IMAGE                Object position along y                                    [pixel]
#   4 X_IMAGE                Object position along x                                    [pixel]
#   5 THETA_IMAGE            Position angle (CCW/x)                                     [deg]
#   6 FLUX_APER              Flux vector within fixed circular aperture(s)              [count]
#   7 A_IMAGE                Profile RMS along major axis                               [pixel]
#   8 B_IMAGE                Profile RMS along minor axis                               [pixel]
#   9 FLUX_RADIUS            Fraction-of-light radii                                    [pixel]
#  10 FLUXERR_APER           RMS error vector for aperture flux(es)                     [count]
#  11 MAG_APER               Fixed aperture magnitude vector                            [mag]
#  12 NUMBER                 Running object number                                     
 3.50   0.0000    181.0222   1105.8365 -40.31     652229.9     6.539     5.885      7.135  0.006056265  13.5140          1
 3.68   0.0000     52.4050     61.7681  -2.27      27051.6     6.359     5.786     12.859   0.00605695  16.9695          2
 3.50   0.0000     58.9521   1076.9418  81.32     40033.42     2.093     1.972      3.147  0.006054895  16.5439          3
 3.50   0.0000     15.7237    983.4587 -87.90     4398.915     4.509     1.979      7.090  0.006053524  18.9416          4
 3.50   0.0000     17.0120     89.4810 -42.63     4215.993     1.663     1.619      3.025   0.00605695  18.9877          5
 3.50   0.0000     13.8143   1444.2383 -42.28     11056.43     1.721     1.697      2.556  0.006057635  17.9410          6
 3.64   0.0000     16.2665    382.9738  86.43     358.9652     1.231     1.191      2.715  0.006056265  21.6624          7
 4.95   0.0000     13.1674    839.5089 -76.27      144.862     1.479     0.949      4.956  0.006052839  22.6476          8
 3.64   0.0000      9.2333   1182.3411 -70.45     164.6473     1.026     0.964      2.576   0.00605695  22.5086          9
 4.21   0.0001      5.6605   1467.9125   8.54       63.633     1.152     0.903      2.979  0.005741143  23.5408         10
 4.51   0.0000      3.6078    143.2684  59.55     138.7154     1.696     1.490      4.008  0.005265407  22.6947         11
 5.88   0.0001      3.6479    183.5916 -38.45     39.51444     1.080     0.962      4.454  0.005279572  24.0581         12
 6.99   0.0003      2.5114    843.4935  44.82     17.98779     0.507     0.493      3.041  0.004948555  24.9126         13
 6.37   0.0005      1.8622    302.3619  20.33     11.10842     0.906     0.677      5.000  0.004750925  25.4359         14
 3.91   0.0000     23.8545    365.4416  -3.18     803.2924     1.390     1.345      2.863  0.006054895  20.7878         15
 4.93   0.0001     14.8386   1561.6169 -19.92     96.63051     0.905     0.686      2.419  0.006057635  23.0872         16
 4.67   0.0001     17.1879   1213.4882  -0.33     75.93632     0.921     0.725      2.777  0.006056265  23.3489         17
 7.39   0.0001     15.4944    192.9995 -32.51     56.32602     0.786     0.318      2.352  0.006053524  23.6732         18
 4.18   0.0000     33.0747   1108.5681  65.68     370.8045     2.036     1.213      3.668   0.00605421  21.6271         19
 3.82   0.0000     23.0219    381.4543   6.25      242.438     1.319     1.170      3.087   0.00605832  22.0885         20
 5.46   0.0001     22.9778    696.8055  -3.26     126.5922     0.886     0.748      2.817  0.006054895  22.7940         21
 7.61   0.0002     20.6041    212.2110 -18.94     39.25513     0.744     0.450      2.719  0.006052839  24.0653         22
 6.44   0.0001     23.9324   1451.8411 -46.75     53.37595     0.843     0.652      3.195   0.00605558  23.7316         23
 4.88   0.0000     32.3874    325.0325 -26.40     236.4095     1.486     1.262      3.828  0.006056265  22.1158         24
 7.47   0.0001     26.2151    701.0262  -0.99     117.1728     0.703     0.411      3.610   0.00605558  22.8779         25
 6.50   0.0001     33.5743     14.7714 -89.15     101.4512     0.947     0.712      3.325  0.006056265  23.0344         26
 3.57   0.0000     37.0450   1519.9745 -74.77     226.6376     1.093     1.076      2.406   0.00605832  22.1617         27
 4.28   0.0000     38.0067   1169.0526  23.11     197.8819     1.223     1.198      2.739  0.006060374  22.3090         28
 3.71   0.0000     41.6028    913.7512 -64.32     236.0387     1.133     1.039      2.815  0.006059689  22.1175         29
 3.50   0.0000     79.0617    535.8607 -66.40     35687.66     1.966     1.931      3.489   0.00605421  16.6687         30
 4.97   0.0000     43.5270    438.5287 -52.86     211.3683     1.481     1.242      4.702  0.006050096  22.2374         31
 4.10   0.0001     38.6270   1224.5396 -37.16     95.82162     1.156     0.777      2.725   0.00605695  23.0963         32
 4.55   0.0000     49.4868    263.5109  89.83      151.114     1.455     1.089      3.620  0.006051467  22.6017         33
 4.50   0.0001     41.5007    999.9727  -1.62     44.00425     0.790     0.500      2.867  0.006051468  23.9413         34
 7.08   0.0001     42.5779    226.7772  19.95       46.445     0.748     0.450      3.201   0.00605558  23.8827         35
 7.84   0.0001     45.7927    473.3825 -71.71     48.24866     0.746     0.449      3.039  0.006053524  23.8413         36
 4.11   0.0000     49.4914   1433.9777  -4.26     261.1784     1.069     0.925      3.624  0.006053524  22.0077         37
 5.09   0.0001     46.7959   1429.1587  44.33     63.99654     0.809     0.669      2.398  0.006057635  23.5346         38
 5.94   0.0001     46.8517    664.8470 -43.30     119.8296     0.825     0.669      3.552  0.006057635  22.8536         39
 6.42   0.0001     50.4846    119.9498   0.88     99.21031     0.780     0.500      3.142  0.006052839  23.0586         40
 3.52   0.0000     74.1052    126.4799 -19.14      1749.63     1.475     1.433      2.746  0.006050782  19.9426         41
 7.34   0.0002     57.4917   1240.0228 -32.67     29.23735     0.781     0.319      2.919  0.006053524  24.3852         42
 4.98   0.0001     64.9824   1146.2659   9.37     126.3738     1.374     1.141      3.180   0.00605695  22.7959         43
 7.06   0.0001     68.4563     17.7707  88.90     112.6254     0.996     0.721      4.188  0.006057635  22.9209         44
 6.44   0.0002     66.8790   1414.1798 -28.14     35.45574     0.963     0.744      2.971  0.006056265  24.1758         45
 6.93   0.0002     65.5014   1514.5054 -45.69     35.49931     0.501     0.499      2.802  0.006048725  24.1744         46
 5.53   0.0001     70.7447   1320.8502 -68.46     71.33012     0.911     0.682      2.838   0.00605558  23.4168         47
 3.50   0.0000    120.9251    787.4896 -59.16     53124.27     2.018     1.992      3.190  0.006050782  16.2368         48
 3.90   0.0000     81.3288    419.7149 -76.83     316.4682     1.520     1.278      3.333  0.006050782  21.7992         49
 3.94   0.0000     89.6612    375.3916 -19.36     665.5268     2.301     2.014      5.559  0.006059689  20.9921         50
 8.71   0.0000     75.8810     80.4187 -26.69     207.8606     1.370     0.840      8.220   0.00605695  22.2556         51
 4.79   0.0001     78.7909   1031.8494 -33.64     55.92903     0.892     0.849      2.690   0.00605832  23.6809         52
 3.50   0.0000    192.5951    316.2862 -64.39     181236.7     2.878     2.293      3.652  0.006054895  14.9044         53
 3.50   0.0000     95.5876     54.3806 -29.57     2567.663     1.614     1.584      2.938   0.00605421  19.5262         54
 5.86   0.0001     87.0195   1358.1309 -88.30     89.77996     0.995     0.847      3.347  0.006059005  23.1671         55
 5.84   0.0000     87.4903    757.1628  35.83     197.4688     1.165     1.017      4.352  0.006052153  22.3113         56
 6.63   0.0000     82.9746    930.8279  20.66     152.1102     1.160     0.723      4.926  0.006056265  22.5946         57
 6.93   0.0001     86.4810    862.1655 -47.77     109.8692     1.108     0.733      4.139  0.006054895  22.9478         58
 6.86   0.0001     85.0348   1559.2076  52.97     49.74208     0.930     0.470      3.770  0.006056265  23.8082         59
 6.00   0.0001     90.8526   1043.8802  55.00     61.16666     1.397     0.799      3.280  0.006051468  23.5837         60
 3.82   0.0000     90.7001    494.0876   0.64     234.0439     1.105     1.019      2.743  0.006048038  22.1268         61
 4.28   0.0000     97.1019    451.1805 -12.65     473.5094     1.924     1.255      4.552  0.006052153  21.3617         62
 5.06   0.0001     94.6267   1074.8350  39.51     103.4346     1.336     1.126      2.755  0.006056265  23.0133         63
 7.44   0.0001     85.3500    923.3128 -46.64     68.35255     0.575     0.334      2.551  0.006052153  23.4631         64
 6.97   0.0001     87.8495    810.6924 -59.25     52.44099     0.869     0.590      3.268  0.006051468  23.7508         65
 6.33   0.0000     94.0801    387.5246  89.88     143.5057     0.774     0.499      2.917  0.006053524  22.6578         66
 4.03   0.0000    233.9082    401.8713 -47.20     24543.12     8.632     7.090     18.089  0.006051468  17.0752         67
 6.55   0.0001    101.8555    517.3245  20.24     91.40892     0.933     0.683      3.964  0.006052839  23.1475         68
 5.90   0.0000    112.7964    268.6332  80.50     145.8476     1.522     1.118      4.377   0.00605695  22.6403         69
 4.71   0.0001    107.3404    861.3599  41.75     84.90531     0.979     0.859      2.549  0.006056265  23.2277         70
 6.49   0.0006    106.1678   1098.1515 -41.98     10.94033     0.806     0.676      2.709  0.006057635  25.4524         71
 6.85   0.0001    106.9845   1420.9861 -44.46     55.29504     0.881     0.534      2.804   0.00605558  23.6933         72
 7.78   0.0001    106.4694    180.4571 -48.20     64.57468     0.503     0.495      3.016  0.006052839  23.5248         73
 5.35   0.0000    114.2177    414.3000 -75.12     140.7986     1.174     0.927      3.187  0.006052153  22.6785         74
 5.05   0.0002    109.9821   1513.4705   1.43     39.96712     0.806     0.687      2.273   0.00605832  24.0457         75
 3.50   0.0001    116.1276    989.3898 -72.21     80.27268     1.139     0.958      2.746   0.00605832  23.2886         76
 4.15   0.0000    116.6369    152.4058  53.02     134.0921     1.006     0.952      3.109  0.006056265  22.7315         77
 5.52   0.0000    116.3723     65.2133   7.35     178.8839     1.480     0.950      3.289  0.006056265  22.4186         78
 3.50   0.0000    161.4548   1466.8241 -54.44     32927.45     1.934     1.900      2.969   0.00605832  16.7561         79
 5.02   0.0000    125.2403    492.5927  -6.86     142.2303     1.464     1.092      4.176   0.00605695  22.6675         80
 8.11   0.0001    117.6457    911.6918 -47.04     78.81706     0.575     0.334      2.980  0.006050782  23.3084         81
 4.68   0.0000    130.2387    416.2955 -27.12     148.6835     1.014     0.997      2.999  0.006050782  22.6193         82
 4.35   0.0001    127.1574   1476.9080  43.78     63.79746     0.822     0.651      2.739  0.006050096  23.5380         83
 5.12   0.0001    128.0846    884.0657 -58.07     109.5959     0.780     0.779      2.871  0.006050782  22.9505         84
 5.84   0.0000    141.3550    884.3093  52.16      141.512     2.131     0.964      4.416  0.006051468  22.6730         85
 8.30   0.0002    134.6447     97.6783 -46.36      42.0784     0.581     0.330      2.936  0.006052839  23.9899         86
 5.23   0.0000    145.7969    352.2505 -48.50     230.7437     1.407     1.153      3.155  0.006059689  22.1422         87
 0.00  99.0000    138.1987   1599.6450 -72.96  -0.01438025     0.752     0.444      4.510  0.004581989  99.0000         88
 3.50   0.0000    169.2841    875.6372 -78.34     9927.326     1.768     1.723      2.951  0.006054895  18.0579         89
 3.99   0.0000    150.7436   1278.8497  28.32     198.2014     1.078     1.029      2.549  0.006054895  22.3072         90
 4.29   0.0000    164.2198   1444.2903  61.79      682.488     1.450     1.305      2.315  0.006054895  20.9648         91
 3.87   0.0000    154.5441     80.6298 -48.01     139.4493     1.066     0.917      2.865  0.006057635  22.6890         92
 6.00   0.0001    155.1815   1578.5652   5.70      73.1589     0.898     0.727      2.736  0.006056265  23.3893         93
 7.51   0.0002    154.5055    822.5117  46.03     35.55133     0.501     0.498      3.008   0.00604941  24.1729         94
 3.50   0.0000    165.7383    102.5978 -37.77       586.59     1.311     1.165      2.922  0.006059689  21.1292         95
 4.87   0.0001    165.0086    574.7706  86.48     121.6796     1.251     0.963      3.169  0.006056265  22.8370         96
 7.70   0.0001    165.8022   1054.6754 -60.40     89.90557     1.211     1.000      2.697  0.006057635  23.1655         97
 8.26   0.0001    159.3821    491.2143  17.93     71.03211     0.756     0.448      3.871   0.00605558  23.4214         98
 5.10   0.0002    164.3577   1196.5062  18.24     36.84126     0.945     0.817      3.012  0.006050096  24.1342         99
 4.96   0.0001    167.8831    649.7219  36.86     125.3652     1.237     1.028      2.985  0.006052153  22.8046        100
 5.03   0.0000    168.4620   1367.5079  -4.70     173.5872     1.259     0.968      2.539  0.006053524  22.4512        101
 6.77   0.0001    174.8292   1198.9620 -74.73     56.94004     1.100     0.850      3.526   0.00605695  23.6615        102
 4.54   0.0000    179.3327    573.3319  24.33     361.9293     1.714     1.330      4.275  0.006051468  21.6534        103
 5.66   0.0000    185.8885   1353.4348 -69.02     288.2813     1.580     1.377      3.081   0.00605421  21.9005        104
 4.12   0.0000    191.7545   1349.0994  -8.69     910.7353     1.394     1.366      2.517  0.006048725  20.6515        105
 6.94   0.0002    189.5625   1026.0391  51.22     42.97115     1.298     1.107      2.155   0.00605832  23.9671        106
 8.39   0.0001    182.3929     58.7790 -19.01     88.03563     0.766     0.444      3.112  0.006054895  23.1884        107
 3.61   0.0000    209.8589    826.0873  -7.87     3023.046     4.937     2.269      9.571  0.006052839  19.3489        108
 3.95   0.0000    229.0334    560.6039 -26.64     2637.047     3.951     3.606      9.703   0.00605695  19.4972        109
 7.27   0.0001    186.4370    834.3389  -8.75      59.0591     0.995     0.478      4.403  0.006056265  23.6218        110
 5.73   0.0000    194.2279    266.1493  -2.74     210.1832     1.598     1.112      4.373  0.006057635  22.2435        111
 3.50   0.0000    258.9285    995.8074 -39.84     86268.59     2.157     2.062      3.276   0.00605832  15.7104        112
 5.33   0.0000    207.8602    348.2912  42.92     893.7075     2.172     1.551      3.658  0.006052153  20.6720        113
 3.50   0.0000    205.7459    547.4401  30.29     1810.165     1.440     1.435      2.538  0.006054895  19.9057        114
 7.23   0.0390    193.8830   1158.3497  19.93     0.168671     0.901     0.693      5.408  0.006052839  29.9824        115
 4.67   0.0000    202.5069    249.0628 -82.07     235.9253     1.245     1.125      2.803  0.006052839  22.1181        116
 6.30   0.0001    195.0164    447.8040  -1.57     123.9739     0.905     0.757      4.655  0.006053524  22.8167        117
 3.50   0.0000    211.3949   1304.6354 -22.74     1704.879     1.484     1.447      2.432  0.006056265  19.9708        118
 3.50   0.0000    264.9597     65.7597 -32.49        65206     2.095     2.035      3.467   0.00605832  16.0143        119
 4.14   0.0000    209.9293    683.1187 -66.62     426.9844     1.588     1.287      3.226  0.006051468  21.4740        120
 5.97   0.0000    205.0531    940.3129  79.60     156.7211     0.730     0.683      3.493  0.006051468  22.5622        121
 6.18   0.0000    204.7234    935.2993 -17.45     181.1866     1.044     0.660      2.617   0.00604941  22.4047        122
 5.76   0.0001    204.9661    182.0299 -44.92     88.70627     0.793     0.788      3.193  0.006056265  23.1801        123
 6.06   0.0000    221.6865    344.0318  25.49     532.5013     2.076     1.969      3.950   0.00605558  21.2342        124
 3.64   0.0000    208.3053   1224.1161  17.48     134.1336     1.017     0.915      2.426  0.006048038  22.7312        125
 3.50   0.0000    223.2675   1224.5825 -89.29     2077.519     1.447     1.430      2.147  0.006057635  19.7561        126
 6.36   0.0001    216.6158    881.3004 -56.94      91.0052     1.809     0.740      4.087  0.006053524  23.1523        127
 6.23   0.0000    216.7369    739.7720 -48.77      187.891     1.484     1.052      4.854  0.006056265  22.3652        128
 3.50   0.0000    311.2113    437.7717 -43.93     219625.3     2.528     2.337      3.771   0.00605695  14.6958        129
 3.50   0.0000    221.6353    773.3149 -28.64     667.9725     1.304     1.232      2.584   0.00605558  20.9881        130
 7.25   0.0001    213.9205    791.8632 -44.17     74.19753     0.851     0.667      3.230  0.006051468  23.3740        131
 8.64   0.0001    220.8395    373.6221  32.45     110.9124     1.683     0.981      9.376   0.00605695  22.9375        132
 7.72   0.0000    226.6158    323.3230 -86.04      145.037     1.792     0.855      8.911  0.006057635  22.6463        133
 4.09   0.0000    243.0104    111.1028 -84.61     1129.754     2.358     1.744      4.793  0.006052839  20.4175        134
 4.02   0.0000    254.5417    611.2194 -43.66     2881.158     2.738     2.260      5.466  0.006057635  19.4011        135
 7.73   0.0001    220.6618   1401.3055  46.61     47.44864     0.567     0.338      2.912  0.006052153  23.8594        136
 6.32   0.0000    229.1916    546.3879 -64.50     135.6008     1.265     1.034      4.249  0.006052839  22.7193        137
 4.00   0.0000    238.3424    837.3022  -9.76     361.2383     1.711     1.461      3.112  0.006050782  21.6555        138
 3.60   0.0001    232.0458   1551.7197 -75.01     71.38023     0.719     0.670      2.097  0.006052839  23.4161        139
 5.39   0.0001    238.9705   1477.4504 -68.12     78.70589     1.289     0.924      2.642  0.006057635  23.3100        140
 5.53   0.0000    251.0242   1371.4264  88.51     387.1448     1.875     1.660      3.116  0.006056265  21.5803        141
 5.00   0.0000    249.4536    105.7782 -15.15     387.5757     1.367     1.268      6.075  0.006057635  21.5791        142
 6.38   0.0001    247.8134   1412.9871  26.31     86.19324     1.222     0.976      3.236   0.00605421  23.2113        143
 3.56   0.0000    252.4222   1351.3031 -18.77     235.2846     1.077     1.070      2.587  0.006052839  22.1210        144
 4.93   0.0000    248.0549    561.1425 -45.10     135.3723     0.823     0.656      2.524  0.006053524  22.7212        145
 5.40   0.0001    250.4485   1549.2814 -84.04     105.2924     0.998     0.957      3.034  0.006052839  22.9940        146
 3.50   0.0000    286.7189   1484.9951 -39.03     19669.14     1.874     1.841      2.758   0.00605558  17.3155        147
 6.17   0.0001    248.9496    149.9729  73.74     89.33356     0.793     0.788      2.881  0.006057635  23.1725        148
 6.83   0.0001    252.4687    693.5012  40.35     66.69236     0.503     0.496      2.509  0.006052839  23.4898        149
 3.50   0.0000    281.0660   1520.9102  76.99     4815.267     1.639     1.588      2.583  0.006053524  18.8434        150
 6.41   0.0001    264.1126    722.8807 -57.13     123.3916     1.243     0.947      4.484  0.006051468  22.8218        151
 3.50   0.0000    350.4285    889.1489 -49.01     196495.6     2.387     2.221      3.447  0.006057635  14.8166        152
 3.50   0.0000    317.8304    903.7720 -63.35     45803.75     2.038     1.981      3.300   0.00605695  16.3977        153
