#   1 KRON_RADIUS            Kron apertures in units of A or B                         
#   2 Y_IMAGE                Object position along y                                    [pixel]
#   3 MAG_BEST               Best of MAG_AUTO and MAG_ISOCOR                            [mag]
#   4 FLUX_BEST              Best of FLUX_AUTO and FLUX_ISOCOR                          [count]
#   5 X_IMAGE                Object position along x                                    [pixel]
#   6 THETA_IMAGE            Position angle (CCW/x)                                     [deg]
#   7 A_IMAGE                Profile RMS along major axis                               [pixel]
#   8 B_IMAGE                Profile RMS along minor axis                               [pixel]
#   9 MAGERR_BEST            RMS error for MAG_BEST                                     [mag]
#  10 NUMBER                 Running object number                                     
#  11 FLUXERR_BEST           RMS error for BEST flux                                    [count]
 4.35     53.0761  16.4691     42890.63     63.6156   3.16     4.592     4.073   0.0086          1      340.727
 3.92     16.5094  18.6522     5742.701    984.8414 -83.95     3.666     1.856   0.0351          2     185.5832
 4.22     17.7176  19.0726     3898.962     91.1998  -3.81     1.747     1.724   0.0369          3     132.6158
 3.50     14.7234  18.0384     10107.84   1445.5381 -51.67     1.979     1.966   0.0135          4     125.7272
 3.94     24.5798  20.8104     786.7476    367.1608  47.33     1.418     0.833   0.1094          5     79.25313
 3.50     59.7903  16.3352     48520.27   1078.2528  41.11     2.422     2.360   0.0034          6     152.1027
 3.50     80.1555  16.3894     46158.29    537.4584  -5.36     2.379     2.363   0.0035          7     150.7199
 4.41     75.1596  20.0959     1519.316    127.4336  -3.96     1.642     1.477   0.0887          8     124.0508
 3.50    121.7140  15.9593     68595.49    788.9751 -30.72     2.477     2.450   0.0025          9     155.8421
 7.55     82.2019  21.5295     405.6812    421.3208 -29.79     0.727     0.638   0.2510         10     93.77357
 4.48     96.3192  19.6448     2301.925     55.8991 -28.59     1.568     1.396   0.0565         11      119.757
 7.23     89.5114  20.7331      844.821    376.3397 -11.82     1.109     0.883   0.1648         12     128.2008
 5.53     93.6526  23.5792     61.42346   1047.2646  49.95     0.551     0.343   0.7885         13     44.59823
 7.24    117.0107  23.5025     65.91797    452.2246 -89.50     0.672     0.417   1.1181         14     67.86832
 3.50    162.3631  16.5815      38672.8   1468.0619 -38.60     2.333     2.289   0.0041         15     146.4933
 3.74    170.3269  18.1982     8723.939    877.1562 -20.84     2.076     1.959   0.0170         16     136.5057
 6.15    164.6801  20.9443      695.488   1445.7670   1.43     1.117     0.819   0.1683         17     107.7959
 5.98    166.7937  21.3082      497.433    104.3359 -70.54     0.958     0.664   0.1882         18     86.21245
 8.40    169.3878  21.9568     273.6951   1367.1930  18.98     0.760     0.444   0.3445         19     86.81745
 7.81    178.4733  22.2201     214.7653    574.5372 -47.61     0.503     0.495   0.3731         20     73.78065
 6.04    192.5125  20.4831     1063.595   1350.6089 -46.13     1.345     1.047   0.1321         21     129.4198
 5.82    210.2050  18.9519      4357.68    826.7244  -9.62     3.093     2.058   0.0665         22     266.8058
 4.71    206.2772  19.9230     1781.556    548.8275  67.73     1.490     1.249   0.0711         23     116.6574
 4.28    212.2492  20.0218     1626.614   1305.9180  35.16     1.557     1.396   0.0764         24      114.392
 6.01    229.0811  18.9718     4278.447    562.2142   5.12     2.787     2.140   0.0673         25     265.2317
 3.50    259.5902  15.5055     104183.1    997.2166  -5.34     2.567     2.511   0.0017         26     161.4509
 6.36    209.5165  22.6168     149.0352   1226.4760  47.57     0.501     0.498   0.4218         27      57.8783
 8.03    209.6646  21.6018     379.5717    684.3248  45.47     0.574     0.335   0.1897         28     66.30792
 3.50    223.6874  19.7592     2071.573   1225.4329 -20.57     1.526     1.334   0.0477         29     90.93987
 3.50    265.5750  15.6893     87956.27     67.4363  23.25     2.521     2.500   0.0020         30     161.1264
 6.86    222.0241  21.1820     558.7496    774.9658  42.61     0.796     0.776   0.1928         31     99.19841
 5.37    243.9678  20.2366     1334.642    112.7747  60.17     1.669     1.178   0.1111         32     136.5057
 4.20    255.0830  19.1474     3639.622    612.6425 -10.07     2.406     1.927   0.0488         33     163.7046
 3.50    287.4959  17.2777     20366.38   1486.1455 -21.89     2.200     2.111   0.0073         34     136.1217
 3.93    281.9188  18.9724     4275.892   1521.9924  -7.51     1.742     1.687   0.0311         35     122.3514
 3.64    302.7955  17.6061     15051.12    201.6064 -18.90     2.147     2.093   0.0102         36      141.032
 6.75    292.7825  21.0096     654.8645   1476.2543 -33.47     0.967     0.830   0.1804         37     108.7627
 3.64    321.6673  18.0727     9792.926    697.1133   7.98     2.136     2.026   0.0152         38     137.2704
 5.58    301.8019  21.0090     655.2689    562.6378  12.84     1.362     0.775   0.1729         39     104.3416
 6.42    327.4525  19.9804     1689.767    595.1927 -74.56     1.521     1.295   0.1050         40     163.3845
 8.75    322.3300  21.0829     612.1118    639.1661 -12.92     1.100     0.411   0.1886         41     106.3292
 3.88    367.7903  18.0297     10188.47    760.9296 -31.18     2.118     1.987   0.0154         42     144.3336
 4.50    349.5560  20.7959     797.3029     54.4217  -8.97     1.724     1.072   0.1533         43     112.5469
 4.28    360.8574  19.9280     1773.435   1500.1417  26.84     1.559     1.376   0.0703         44     114.8487
 3.50    394.8527  16.2854     50797.05    231.3119  56.18     2.481     2.350   0.0033         45     153.8137
 6.36    380.3160  22.9156      113.176      1.4190  87.34     1.266     0.490   0.7281         46      75.8791
 3.50    397.7925  18.2765     8117.141    354.3903  50.55     2.040     1.913   0.0168         47     125.3102
 3.61    396.8803  18.4687     6800.481   1460.9519  11.57     1.997     1.799   0.0199         48     124.8918
 4.30    393.7094  20.0109      1643.01   1088.5785  72.26     1.476     1.300   0.0709         49     107.3092
 5.73    413.0342  21.2936     504.1591      1.8160  86.56     2.186     0.875   0.2503         50     116.2079
 9.08    395.7974  21.3595     474.4733    626.4155 -71.76     0.761     0.454   0.2184         51      95.4334
 3.50    437.5338  17.5144      16376.8    251.9062  -3.41     2.185     2.125   0.0090         52     136.1217
 5.68    420.2739  20.6924     877.1134    159.0850  -7.92     1.694     1.092   0.1732         53     139.9141
 3.50    460.6571  15.1505     144481.2    807.4001  -6.26     2.604     2.515   0.0012         54     163.0638
 5.04    432.4406  20.3481     1204.342   1422.1628  47.40     1.444     1.265   0.0818         55      90.6942
 7.71    427.1245  20.3141     1242.681    433.6820   0.98     1.559     0.329   0.0594         56     67.92625
 4.23    449.6169  18.7326     5333.033     21.3220 -74.14     1.977     1.846   0.0299         57     146.8502
 5.08    439.7754  21.2624     518.8345    305.7711  44.23     1.065     0.762   0.1740         58     83.12138
 6.34    444.2969  20.7445     836.0077    122.5360 -53.60     1.247     0.856   0.1521         59     117.1053
 4.31    457.3157  18.6310     5855.749     34.5039 -50.59     1.926     1.899   0.0276         60     148.6216
 5.20    467.2097  18.4319      7034.69    849.8481  22.62     5.042     1.902   0.0451         61     291.9127
 4.99    463.3731  19.8555     1895.816    468.0524 -11.48     1.585     1.487   0.0791         62      138.031
 4.76    471.5055  19.6743     2240.257    734.9928  75.93     1.661     1.558   0.0682         63     140.6604
 4.64    470.9930  20.0769     1546.129    254.0508  81.26     1.580     1.381   0.0880         64     125.3102
 4.57    477.6005  19.4198      2831.93    922.8333 -26.05     1.755     1.553   0.0518         65     134.9632
 3.50    477.5716  20.6258     932.5736   1276.2678 -70.77     1.351     1.163   0.0931         66     79.91084
 4.56    483.7100  20.3384     1215.141   1070.1748 -64.27     1.311     1.252   0.0941         67     105.3401
 5.73    495.4494  19.5968      2405.91     82.4905  59.85     2.032     1.487   0.0816         68     180.7249
 7.37    494.2784  19.6883     2211.459   1189.0267 -57.81     2.135     1.255   0.1074         69     218.7252
 7.61    481.4957  22.1587     227.2498    682.4514  76.42     0.500     0.497   0.3388         70     70.88615
 4.66    530.8340  18.0373     10117.73    519.0797  23.79     4.232     2.365   0.0224         71     208.5045
 9.16    491.5052  21.4543     434.8049    840.4949  44.99     0.502     0.498   0.2107         72      84.3714
 6.86    502.8146  20.4303     1116.536    762.1321 -76.49     1.438     1.154   0.1555         73     159.8217
 5.62    514.6791  19.2810     3217.979   1460.5062  33.08     2.939     1.497   0.0723         74     214.3745
 4.87    501.1110  20.9944     664.1222    863.8115  56.72     0.984     0.798   0.1274         75     77.92105
 6.18    513.5325  21.0237     646.4297   1178.6989 -75.50     1.119     0.911   0.1906         76     113.4732
 8.11    518.3926  21.4557     434.2347    642.0172  -0.38     0.893     0.488   0.2441         77     97.60262
 3.55    539.9919  19.9714     1703.867    999.8556 -16.36     1.458     1.302   0.0561         78     88.01499
 3.84    558.5294  19.6405     2310.993   1041.7600 -40.61     1.726     1.463   0.0518         79      110.197
 3.82    580.0692  18.0876      9659.94    144.9193  80.66     2.006     1.926   0.0153         80     136.5057
 3.72    581.6051  18.0833     9697.688    319.2840  81.21     2.067     1.963   0.0152         81     136.1217
 4.91    570.6909  20.0981     1516.166     45.6481  49.17     1.819     1.369   0.1008         82     140.6604
 7.35    558.4872  23.0527     99.74707   1014.4709  50.10     0.501     0.498   0.7389         83     67.86832
 6.25    570.2560  20.1718     1416.744   1446.6609 -13.69     1.872     1.116   0.1255         84     163.7046
 5.59    596.4774  18.4786     6738.229    782.5620 -63.92     3.171     2.585   0.0467         85     289.9336
 5.59    583.8234  20.9395     698.5729     75.9971  82.67     0.951     0.748   0.1350         86     86.81745
 4.89   1001.2191  19.4154     2843.491    542.7368 -86.65     1.811     1.613   0.0581         87     152.1027
 5.10   1598.1549  20.9306     704.3195    654.4977 -59.77     1.563     0.709   0.1242         88     80.56319
 7.18   1599.7539  24.4658     27.14429     18.0441   2.33     0.673     0.430   2.2792         89     56.96678
 0.00   1576.4854  99.0000    -39.35718    157.4998  44.55     0.507     0.493  99.0000         90     66.30792
 3.82   1552.1312  17.0733     24584.94    682.1388 -11.09     4.029     3.595   0.0116         91     263.6482
 7.60   1545.4729  20.8446     762.3495    863.4920   0.17     1.075     0.499   0.1443         92      101.287
 3.71   1541.9044  19.5986      2401.97    654.4996 -86.72     1.636     1.370   0.0456         93     100.7689
 4.83   1541.2513  19.1112     3762.724    134.9763  52.87     1.723     1.649   0.0425         94     147.2062
 4.74    938.7365  19.7878     2017.714   1066.8510 -66.13     1.671     1.491   0.0731         95     135.7366
 5.75    928.1341  20.2924     1267.739   1322.7537  13.67     1.378     1.096   0.1102         96     128.6084
 5.49    912.6265  20.5484     1001.472    838.8096 -85.83     1.382     0.831   0.1153         97     106.3292
 8.10    911.2211  21.3142     494.6638   1000.4026  71.65     0.744     0.454   0.1893         98     86.21245
 3.60    899.9008  18.5081     6557.832    302.8005  34.11     1.968     1.814   0.0183         99     110.3488
 5.17    896.1798  20.0617     1567.884    538.6572 -20.99     1.596     1.272   0.0919        100     132.6158
 3.50    880.0001  15.3884     116043.4   1592.3890  67.93     2.579     2.485   0.0015        101     158.8361
 7.77    888.5492  20.9613     684.6431    326.2952  31.43     0.996     0.689   0.1858        102     117.1053
 6.98    885.5248  20.5231     1025.112   1499.8888   3.37     1.025     0.930   0.1301        103     122.7784
 6.56    876.4882  21.1301     586.0989    960.7388  68.84     1.145     0.537   0.1706        104     92.08382
 7.42    875.6602  21.8951     289.6953    543.2203 -14.94     0.752     0.447   0.2921        105     77.92105
 4.02    869.0720  19.3831     2929.215   1102.9993   6.93     1.826     1.786   0.0496        106     133.7947
 9.60    867.4836  20.8243     776.7645    937.5118 -43.88     0.501     0.498   0.1247        107     89.19646
 6.99    858.3290  21.8753     295.0343   1340.0992 -26.27     0.848     0.602   0.1878        108     51.02956
 6.85    844.8875  21.0739     617.2007   1063.5880  26.83     1.092     0.575   0.1698        109     96.52411
 5.29    842.8666  20.3070     1250.877   1106.3442 -12.73     1.420     1.251   0.1099        110     126.5571
 5.46    836.3758  20.3444     1208.503    298.4915 -47.33     1.460     1.317   0.1234        111     137.2704
 0.00    832.0208  99.0000    -20.54688    102.6931  61.96     0.895     0.214  99.0000        112     56.04042
 3.50    822.4543  18.4960     6631.239    654.3831  60.36     2.010     1.887   0.0205        113     124.8918
 3.85    802.8201  18.5504     6307.222   1378.5322  80.47     1.905     1.844   0.0226        114     131.0276
 3.50    798.0511  17.4127     17984.59    695.6246  87.04     2.676     2.132   0.0092        115     152.4464
 3.97    800.0858  19.4624     2722.931     41.1827  84.96     1.738     1.594   0.0474        116     118.8797
 3.83    773.9717  19.4512     2751.132   1427.2469  86.26     2.525     1.713   0.0573        117     145.0571
 4.11    742.2826  20.1186     1487.864    556.6755 -32.45     1.593     1.423   0.0821        118     112.5469
 0.00    739.2837  99.0000    -4.262329   1025.6288  40.92     0.570     0.335  99.0000        119     25.06204
 5.75    737.3004  21.0143     652.0314   1157.4828  55.04     1.079     0.817   0.1617        120     97.06487
 6.45    735.8962  20.7957     797.5031    649.7789  27.60     0.990     0.767   0.1393        121     102.3154
 3.50    726.2197  15.9442     69551.19    848.3931   9.61     2.486     2.436   0.0024        122     156.1776
 5.53    726.7856  20.3632      1187.71   1178.2944  53.55     1.179     1.157   0.1083        123     118.4386
 7.35    720.5074  21.3124     495.4733   1395.0264  -3.24     0.780     0.499   0.1863        124     84.98952
 4.62    715.3133  20.1902     1392.949    808.2141  -2.95     1.457     1.192   0.0859        125      110.197
 4.12    708.3894  20.1795     1406.648   1163.8232  76.10     1.459     1.173   0.0754        126     97.60262
 5.31    704.0020  20.1632     1428.015   1339.0176  55.46     1.726     1.530   0.0796        127     104.6124
 3.61    702.1442  19.5278     2563.668    952.2445 -41.71     1.611     1.467   0.0429        128      101.287
 7.63    699.2137  21.3951     459.1768    583.4163  71.29     0.761     0.452   0.1921        129     81.21029
 8.44    687.0834  20.6822     885.3982   1213.1517  66.70     0.965     0.767   0.1607        130     131.0276
 4.78    685.1599  19.7931     2008.035    644.3717 -63.46     1.616     1.437   0.0721        131     133.4029
 3.50    648.0245  15.9712      67844.7   1464.2267 -70.60     2.440     2.433   0.0025        132     155.5059
 5.91    654.3413  21.3340      485.725    870.4225 -81.46     1.001     0.476   0.1665        133      74.4867
 7.57    644.4534  22.0042     262.0023    653.3862 -25.38     1.539     0.624   0.5578        134     134.5748
 5.86    630.8973  20.8419     764.2377    805.9020 -18.33     1.317     0.649   0.1417        135     99.72467
 4.60    623.1654  20.3435      1209.44   1581.1930 -26.50     1.169     1.109   0.0847        136     94.33009
 3.50   1563.1940  16.0959     60485.15    304.0516  19.62     2.354     2.291   0.0027        137     147.9156
 3.50   1557.4763  16.1012     60192.11    487.5990  72.45     2.428     2.382   0.0027        138     150.3722
 3.50   1560.4519  20.6354     924.3522    861.2052 -47.68     1.353     1.039   0.0875        139      74.4867
 4.31   1584.6047  20.2905     1270.016   1108.8656 -28.62     1.251     1.143   0.0807        140     94.33009
 4.62   1569.9062  19.9701     1705.995     92.4829  -9.49     1.383     1.314   0.0716        141     112.5469
 4.99   1565.8108  20.0622     1567.192    784.5759 -57.96     1.744     1.420   0.0982        142     141.7723
 7.47   1551.3224  21.6372     367.3892   1221.6764  44.93     0.568     0.338   0.1764        143     59.65959
 4.61   1565.9939  19.7950     2004.388     21.9316  76.93     1.520     1.364   0.0651        144     120.1933
 7.35    950.0664  20.6104     945.8767    654.0156   0.14     1.327     0.754   0.1536        145     133.7947
 3.63   1025.4348  17.3044     19872.65   1379.8235  79.28     2.325     2.195   0.0081        146     147.9156
 5.73   1503.9285  20.7121     861.3374    723.1745 -28.62     0.960     0.740   0.1110        147     88.01499
 3.66   1514.2578  18.2685     8176.907    392.6544 -56.78     2.029     1.934   0.0175        148     131.8241
 3.50   1506.6610  16.7663     32619.57    269.2816   8.82     2.292     2.250   0.0048        149     144.6958
 7.13    986.4722  20.0407     1598.485    453.7448 -32.90     1.763     1.184   0.1272        150     187.2678
 6.08    980.7255  20.5146     1033.174    798.3164  25.80     1.282     0.986   0.1304        151     124.0508
 6.03   1071.5354  19.7068     2174.065   1219.0240  65.44     1.823     1.711   0.0971        152     194.3992
 8.26   1064.9005  20.2116     1365.679   1562.6733 -71.30     1.336     0.719   0.1165        153     146.4933
 3.50    984.3661  16.8634     29827.97    558.4333  72.42     2.386     2.297   0.0054        154     148.6216
 3.50   1094.5245  16.8239     30933.38    778.2376  55.02     2.418     2.168   0.0051        155     145.9808
 3.97   1038.1735  18.2219     8535.354    525.4780 -48.22     2.105     2.019   0.0189        156      148.269
 6.73   1110.6647  20.0929     1523.506    479.4353  30.02     1.934     1.115   0.1276        157     178.9788
 3.54   1106.9893  18.4389     6989.119    428.0913  39.79     2.033     1.866   0.0193        158     124.0508
 4.90   1128.2218  21.1452     577.9636    546.8216  61.28     1.009     0.659   0.1359        159     72.34788
 5.42   1119.3601  25.4489     10.97583    397.7130  48.56     0.567     0.337   4.2951        160     43.40873
 3.91   1272.1913  17.7453      13240.1    610.1705 -49.23     3.893     2.566   0.0184        161     224.3951
 4.81   1407.6844  19.5266     2566.663    308.3306 -51.13     1.645     1.548   0.0592        162     139.9141
 6.32   1129.6849  20.8227     777.8748    219.3333  30.42     1.245     0.877   0.1666        163     119.3192
 3.90   1388.4165  18.3760     7405.975   1428.3680  60.07     2.071     1.909   0.0207        164      141.032
 3.99   1391.9753  19.9646     1714.558   1038.7365  55.07     1.559     1.385   0.0664        165      104.842
 3.50   1439.2206  19.5526     2505.881    619.1802   4.29     1.620     1.426   0.0416        166     95.98031
 5.18   1414.9738  19.9699      1706.31   1386.3202  63.84     1.565     1.257   0.0839        167     131.8241
 3.59   1435.6067  15.7304     84693.97   1088.5908  45.91     2.636     1.592   0.0018        168     137.5497
 8.09   1405.5098  21.2529     523.3932    330.4528  50.22     0.505     0.493   0.1531        169     73.78065
