#   1 KRON_RADIUS            Kron apertures in units of A or B                         
#   2 MAGERR_APER            RMS error vector for fixed aperture mag.                   [mag]
#   3 Y_IMAGE                Object position along y                                    [pixel]
#   4 X_IMAGE                Object position along x                                    [pixel]
#   5 THETA_IMAGE            Position angle (CCW/x)                                     [deg]
#   6 FLUX_APER              Flux vector within fixed circular aperture(s)              [count]
#   7 A_IMAGE                Profile RMS along major axis                               [pixel]
#   8 B_IMAGE                Profile RMS along minor axis                               [pixel]
#   9 FLUX_RADIUS            Fraction-of-light radii                                    [pixel]
#  10 FLUXERR_APER           RMS error vector for aperture flux(es)                     [count]
#  11 MAG_APER               Fixed aperture magnitude vector                            [mag]
#  12 NUMBER                 Running object number                                     
 4.48   0.0027     54.1134     63.6375   5.15      27637.9     4.168     3.795     13.568     69.42366  16.9462          1
 4.18   0.0169     17.2518    984.8208 -88.85     4473.055     3.632     1.613      8.584     69.44723  18.9235          2
 3.73   0.0184     18.7921     91.0527 -67.39     4096.663     1.546     1.431      4.761     69.47864  19.0189          3
 3.50   0.0078     15.4424   1445.5559 -62.54     9675.398     1.650     1.566      4.708     69.45508  18.0858          4
 5.77   0.1183     18.1645    384.1515  44.06     637.2599     0.761     0.567      3.501     69.43937  21.0392          5
 4.27   0.0697     25.5739    366.8953 -14.68     1081.375     1.150     0.962      3.964     69.40794  20.4651          6
 3.50   0.0017     60.5962   1078.2424  76.97     44461.16     1.998     1.878      5.436     69.45508  16.4300          7
 7.73   0.1919     43.3143    915.3513 -43.40     392.6591     0.576     0.333      2.529     69.40009  21.5650          8
 3.50   0.0017     80.9674    537.4247 -67.18     43539.54     1.917     1.816      5.228     69.43152  16.4528          9
 3.50   0.0000    182.7543   1107.3114 -33.84      1564152     5.320     4.706      8.773     69.39223  12.5643         10
 4.26   0.0434     76.0034    127.7169  10.01     1736.274     1.188     1.148      4.359     69.43152  19.9510         11
 3.50   0.0012    122.5943    788.9246 -61.36     64207.51     2.004     1.876      5.442     69.47079  16.0310         12
 4.04   0.0303     97.4281     55.9913  22.71     2486.493     1.346     1.270      4.524     69.43937  19.5610         13
 8.23   0.0721     90.8850    376.7019 -20.39     1044.052     0.956     0.688      5.736     69.35291  20.5032         14
 3.50   0.0003    194.4246    317.8832 -61.43     273380.9     2.286     2.051      5.718     69.42366  14.4581         15
 3.50   0.0021    163.1353   1468.1381 -62.55     36296.28     1.875     1.794      5.256     69.40009  16.6503         16
 3.50   0.0091    171.1655    877.1136 -49.92     8279.152     1.630     1.557      4.740     69.42366  18.2550         17
 4.79   0.1198    165.7308   1445.5076   4.02     629.1963     0.992     0.930      4.171     69.39223  21.0530         18
 5.69   0.0405    172.4128    325.0309 -77.11     1860.314     1.272     1.156      6.373     69.45508  19.8760         19
 4.93   0.1044    167.6038    104.1795 -53.71     721.9224     1.013     0.798      3.948     69.42366  20.9038         20
 4.76   0.0030    235.9160    403.1274 -54.98     25480.31     4.971     4.426     17.562      69.3765  17.0345         21
 4.98   0.0745    193.4423   1350.3160 -32.41     1011.424     1.126     0.910      4.264      69.4158  20.5377         22
 5.44   0.0216    211.5265    827.6342  -7.65     3487.668     2.457     1.586      9.564      69.4158  19.1937         23
 4.12   0.0419    207.4942    548.9372 -80.12     1796.722     1.310     1.143      4.309     69.40009  19.9138         24
 7.25   0.1718    204.4811    250.5076  36.96      438.754     0.500     0.499      3.002     69.40794  21.4444         25
 6.64   0.0604    209.4116    349.7701  22.88     1248.473     1.196     0.965      6.371     69.45508  20.3091         26
 3.50   0.0460    213.0077   1305.9434 -30.97     1640.106     1.201     1.190      3.827     69.48649  20.0128         27
 8.44   0.1267    211.2228    684.6010 -71.57      594.865     0.753     0.451      4.517     69.42366  21.1140         28
 5.97   0.0256    230.9360    562.0312  11.84     2948.778     2.312     2.091     11.450     69.43937  19.3759         29
 6.71   0.0198    229.8141    414.8990 -71.47      3807.89     1.710     1.547      9.840     69.40794  19.0983         30
 4.37   0.0392    224.6008   1225.8378 -85.78     1920.977     1.311     1.279      4.832     69.42366  19.8412         31
 4.83   0.0950    223.2310    774.5986 -29.44     793.6419     1.026     0.798      3.866      69.4158  20.8009         32
 3.50   0.0008    260.5680    997.2263 -60.60     97760.14     2.037     1.924      5.505     69.43152  15.5746         33
 9.13   0.0686    223.0016    345.4901 -88.29     1099.453     0.803     0.500      4.820     69.40009  20.4471         34
 3.50   0.0009    266.6997     67.3946 -76.33     81838.75     1.982     1.886      5.386      69.4158  15.7676         35
 6.52   0.0466    244.6537    112.8341  75.03     1617.464     1.395     1.155      7.153     69.44723  20.0279         36
 5.17   0.0225    256.3477    612.7624 -34.58     3348.181     1.872     1.547      7.272     69.43937  19.2380         37
 7.49   0.0930    251.4937    107.4909 -45.11     809.6173     0.506     0.494      3.033     69.36864  20.7793         38
 8.17   0.1447    252.6854   1372.6636 -43.97     520.7095     0.570     0.337      3.422     69.39223  21.2585         39
 3.50   0.0002    313.2004    439.2152 -61.04     334818.6     2.247     2.086      5.739      69.4158  14.2380         40
 3.50   0.0039    288.3480   1486.2738 -54.17     19489.93     1.751     1.674      4.978     69.38436  17.3255         41
 3.50   0.0179    282.7493   1522.1841 -61.33     4209.451     1.460     1.360      4.280     69.46293  18.9894         42
 5.11   0.0458    290.6356    514.7411 -36.50     1644.833     1.462     1.311      5.900     69.43937  20.0097         43
 3.50   0.0053    303.9778    201.5832 -66.85     14130.11     1.714     1.615      4.872     69.42366  17.6746         44
 3.50   0.0013    319.4937    905.2718 -62.35     56110.82     1.956     1.848      5.355     69.39223  16.1774         45
 4.02   0.0415    294.7511   1327.3948  47.22     1819.067     1.274     1.263      4.424     69.47864  19.9004         46
 6.28   0.0901    294.3224   1475.1021  11.40     836.2774     0.727     0.658      3.977      69.3765  20.7441         47
 8.31   0.0842    297.8722   1413.8578 -46.31     895.6135     0.853     0.671      5.119     69.40009  20.6697         48
 3.50   0.0003    352.2238    890.5839 -55.85     295979.1     2.209     2.073      5.739     69.42366  14.3718         49
 3.50   0.0003    352.2397   1345.7283 -55.48     285703.2     2.185     2.061      5.701     69.43152  14.4102         50
 6.53   0.1068    303.0704    563.5995 -17.06     706.3055     1.007     0.742      4.529     69.46293  20.9275         51
 3.50   0.0080    322.8800    697.1052 -48.65     9432.312     1.600     1.557      4.720      69.3765  18.1135         52
 7.23   0.0938    322.3919    640.9913 -72.88     803.6972     1.533     0.349      3.912     69.40009  20.7873         53
 4.85   0.0415    328.2270    595.3594  12.77     1816.778     1.342     1.284      5.454     69.46293  19.9017         54
 3.88   0.0117    347.1299    866.8550 -43.34     6464.704     1.633     1.498      5.042     69.40009  18.5236         55
 6.55   0.1405    332.9962     93.4646 -88.40     537.0249     0.778     0.498      3.606     69.47079  21.2250         56
 5.92   0.2214    336.1976   1440.3890  71.88     340.4601     0.728     0.454      2.953     69.40794  21.7198         57
 3.94   0.0146    356.6004    431.5988 -75.33     5169.396     1.788     1.580      5.508     69.44723  18.7664         58
 4.14   0.0802    350.8954     54.4239  75.90     940.2177     1.126     0.959      3.980      69.4158  20.6169         59
 3.50   0.0076    368.9802    760.8908 -58.40     9895.838     1.598     1.559      4.707      69.4158  18.0614         60
 3.76   0.0195    368.2882    442.6587 -56.28      3855.01     1.435     1.336      4.406     69.39223  19.0849         61
 3.62   0.0449    362.0505   1500.2076 -24.28     1678.777     1.284     1.149      3.967     69.46293  19.9875         62
 5.05   0.1744    361.3106   1033.9282 -13.90     432.2296     0.739     0.661      3.156     69.39223  21.4607         63
 3.50   0.0016    396.0200    231.2718 -61.09     47791.73     1.874     1.819      5.274     69.47079  16.3516         64
 5.48   0.1288    373.7695    992.0414 -88.68     585.6266     0.894     0.751      4.264     69.46293  21.1309         65
 3.50   0.0116    397.8937   1461.0099 -39.50     6481.332     1.563     1.472      4.620      69.4158  18.5208         66
 3.50   0.0096    399.0078    354.3785 -71.51     7860.891     1.585     1.493      4.588     69.42366  18.3113         67
 3.66   0.0468    394.5766   1088.5724 -29.99      1611.91     1.284     1.233      4.031     69.43937  20.0316         68
 3.50   0.0036    416.4507    837.1747 -64.92     20992.59     1.798     1.680      4.995     69.47079  17.2448         69
 3.50   0.0017    420.3988    433.1456 -58.39     43498.29     1.886     1.783      5.232     69.47864  16.4538         70
 3.75   0.0200    425.0381    926.1504 -47.65     3763.588     1.483     1.353      4.580     69.43937  19.1110         71
 3.50   0.0049    438.7664    251.9352 -45.10     15412.37     1.713     1.632      4.884     69.43152  17.5803         72
 6.61   0.0748    421.7399    158.5126  -7.53     1007.785     1.013     0.987      5.924     69.39223  20.5416         73
 3.50   0.0006    461.8574    807.3825 -54.53     134955.7     2.057     1.941      5.478     69.43937  15.2245         74
 3.76   0.0643    433.8073   1421.8584  31.89     1173.119     1.177     1.104      3.854     69.47864  20.3766         75
 8.40   0.1693    427.5076   1179.4756  48.21     445.1346     0.502     0.497      3.012     69.38436  21.4288         76
 6.16   0.1183    434.9740    150.9762  35.97     637.6015     0.787     0.769      4.180     69.44723  21.0386         77
 4.40   0.1348    440.6718    305.3953 -46.54     559.6365     0.991     0.875      3.576     69.46293  21.1802         78
 3.73   0.0150    451.1180     21.1858 -35.06     5035.838     1.529     1.416      4.720     69.44723  18.7948         79
 5.41   0.0191    468.5997    850.2263  23.11     3948.793     5.828     1.566     16.305      69.4158  19.0588         80
 6.23   0.0837    446.1815    121.9023 -14.29     900.5294     1.080     0.836      5.294      69.4158  20.6638         81
 3.57   0.0131    458.6487     34.3971 -57.41     5768.826     1.520     1.448      4.554     69.47864  18.6473         82
 8.14   0.0944    448.2517    883.8757  -7.80     797.8527     1.041     0.643      5.762     69.38436  20.7952         83
 3.80   0.0424    464.5070    468.4641 -52.99     1777.924     1.324     1.266      4.412     69.40794  19.9252         84
 5.86   0.1403    461.8690   1096.1428  45.45     537.1156     0.823     0.671      4.108     69.40009  21.2248         85
 3.98   0.0353    472.9391    734.7498 -68.45     2136.228     1.361     1.217      4.393      69.4158  19.7259         86
 4.43   0.0481    472.1027    253.9982 -64.88     1568.882     1.241     1.108      4.565      69.4158  20.0610         87
 3.50   0.0272    478.7898    922.8477 -20.02     2774.734     1.403     1.353      4.150     69.46293  19.4419         88
 4.07   0.0728    478.8117   1276.7957 -50.21     1035.278     1.136     1.024      3.983     69.40009  20.5124         89
 3.50   0.0717    485.0125   1070.3956 -46.82     1051.583     1.195     1.127      3.874     69.40009  20.4954         90
 5.91   0.0399    496.9854     82.8541  55.90     1888.977     1.818     1.496      8.540     69.46293  19.8594         91
 5.91   0.0412    496.5325   1187.0388 -13.62     1829.273     2.128     1.330      8.177     69.43152  19.8943         92
 3.50   0.0068    513.2896   1302.2393 -42.36      11149.4     1.658     1.592      4.798     69.40009  17.9319         93
 4.84   0.0054    533.8892    518.5785  30.84     13975.11     3.346     2.728     11.548     69.42366  17.6866         94
 6.60   0.0657    505.0350    762.6558 -88.65     1147.591     1.252     1.016      6.348     69.43937  20.4005         95
 4.63   0.1229    502.7391    863.4894 -40.17     613.1869     0.963     0.954      3.744     69.40009  21.0810         96
 6.18   0.2048    499.0000    365.9927   0.00     368.0885     0.843     0.289      2.215     69.40009  21.6351         97
 5.71   0.0313    516.2209   1461.1857  26.90     2411.243     2.828     1.249      9.714      69.4158  19.5944         98
 5.94   0.0892    502.4906   1309.9664  -3.30     844.7601     0.785     0.499      3.503     69.40794  20.7332         99
 4.97   0.0362    514.1891   1310.0686  12.56     2086.131     1.453     1.166      5.305     69.47079  19.7516        100
 7.49   0.0981    510.6530    165.5925   6.25     769.5127     1.008     0.636      5.442     69.48649  20.8345        101
 4.21   0.1239    514.4960   1179.0830 -43.70     608.1211     1.130     0.881      3.908     69.36077  21.0900        102
 6.59   0.1254    520.1537    641.3141 -60.97     601.3413     0.857     0.594      4.468      69.4158  21.1022        103
 4.14   0.0484    541.0002    999.6945 -62.31     1558.979     1.250     1.160      4.426      69.4158  20.0679        104
 3.50   0.0002    588.6879   1315.8539 -55.49     308348.7     2.187     2.068      5.634     69.39223  14.3274        105
 3.68   0.0350    559.7887   1041.5302 -54.92     2154.007     1.373     1.305      4.283     69.46293  19.7169        106
 3.60   0.0112    573.4073   1242.7402 -36.74      6763.98     1.543     1.528      4.684     69.47864  18.4745        107
 3.50   0.0081    581.4571    144.8192 -63.56     9268.608     1.639     1.537      4.736     69.43937  18.1325        108
 5.40   0.0463    571.8488     45.7987  65.71      1630.57     1.497     1.163      6.075     69.47864  20.0191        109
 7.49   0.1099    565.9841    139.5040 -87.66      686.094     0.791     0.499      4.399     69.42366  20.9590        110
 5.53   0.0578    572.0419   1447.5493  18.02     1305.237     1.733     1.229      6.818     69.44723  20.2608        111
 3.50   0.0081    583.0026    319.0012 -42.00     9304.977     1.607     1.563      4.738     69.44723  18.1282        112
 3.50   0.0001    631.9539    483.1635 -57.26     546277.2     2.648     2.496      6.242     69.45508  13.7065        113
 5.70   0.0530    575.7169   1336.6877 -52.10     1422.399     1.150     1.091      5.652     69.38436  20.1674        114
 5.48   0.0173    597.8709    782.6802 -74.06     4351.493     2.429     2.215      9.764     69.39223  18.9534        115
 8.26   0.2486    577.3349   1001.3214 -45.62     303.0797     0.573     0.336      3.437     69.38436  21.8461        116
 5.50   0.1165    585.4738     75.7457 -67.57     647.0605     0.965     0.954      4.616     69.40009  21.0226        117
 5.11   0.1220   1000.6995   1273.7892 -23.88     617.5695     1.129     1.019      4.584     69.40009  21.0733        118
 6.74   0.0940   1598.4836    654.9836 -35.24     656.4048     1.182     0.755      4.820     56.80594  21.0071        119
 6.67   0.1626   1595.9614    374.0274  41.76     430.4696     0.803     0.781      4.557     64.44453  21.4651        120
 4.97   0.0438   1030.9441    302.6436  65.88     1720.644     1.852     1.356      6.625     69.42366  19.9608        121
 3.50   0.0027    985.6684    558.4529 -53.00     27859.38     1.772     1.703      4.984     69.40009  16.9376        122
 5.84   0.0555    987.3660    453.8745 -69.95     1358.332     1.342     1.151      6.401      69.4158  20.2175        123
 5.99   0.0832    981.6799    797.8624 -17.31      905.429     1.182     0.957      5.361     69.38436  20.6579        124
 6.62   0.0913    979.0314    452.5188  89.17     825.4276     0.783     0.500      4.051     69.42366  20.7583        125
 6.68   0.1648    965.8215    416.1882 -42.86     457.4667     0.760     0.564      3.692     69.42366  21.3991        126
 7.04   0.1059    952.0219    654.1979   4.29     712.1626     0.935     0.751      4.773     69.43152  20.9186        127
 6.46   0.2465    948.6243    445.2148 -17.64     305.9067     0.743     0.450      3.322     69.42366  21.8360        128
 4.52   0.0434    939.9567   1066.9950 -68.97     1738.603     1.243     1.183      4.645     69.45508  19.9495        129
 7.30   0.0910    939.0000    516.0090   0.00     827.8614     0.850     0.289      2.925     69.40009  20.7551        130
 3.50   0.0053    930.5116   1178.4536 -45.18     14338.51     1.683     1.645      4.959     69.39223  17.6587        131
 4.77   0.0911    929.1415   1322.3268  77.80     827.4545     1.175     1.037      4.113     69.40009  20.7556        132
 5.03   0.1153    913.6597    838.4653 -71.80     653.9214     1.086     0.994      4.146     69.40794  21.0112        133
 6.17   0.3502    913.1230   1000.8743  43.79     215.1832     0.820     0.671      3.756     69.39223  22.2180        134
 8.68   0.2445    905.6592   1315.3329  45.32     308.3418     0.580     0.332      3.482     69.40794  21.8274        135
 3.50   0.0122    901.2381    302.7928 -69.84     6164.715     1.533     1.467      4.516     69.43937  18.5752        136
 3.50   0.0001    882.8272    183.6641 -39.56     980648.4     3.801     3.437      7.034     69.43937  13.0712        137
 5.65   0.0526    897.0488    538.2656   9.28     1431.854     1.371     1.213      6.422      69.4158  20.1603        138
 7.63   0.5588    894.9872   1425.7455 -89.31     135.0084     0.680     0.436      2.668     69.46293  22.7241        139
 4.91   0.0196    880.3037    224.4290  89.77     3839.977     6.075     1.576     13.983     69.39223  19.0892        140
 7.12   0.1039    889.8623    325.2966  21.97     725.3387     0.959     0.675      5.221     69.38436  20.8986        141
 3.50   0.0007    881.0632   1592.5182 -59.42     107796.2     1.984     1.890      5.318     69.38436  15.4685        142
 4.97   0.1021    886.4539   1500.2401 -30.10     738.4011     1.097     0.931      4.291     69.42366  20.8793        143
 7.16   0.1297    886.5475   1304.7545  58.27     581.3289     1.054     0.816      6.030     69.43152  21.1389        144
 6.70   0.0791    878.9013   1177.0784  56.73     951.9402     1.248     1.121      6.632      69.3765  20.6035        145
 5.94   0.2793    878.3253    960.7850 -76.58     270.1677     0.962     0.858      4.214     69.48649  21.9709        146
 4.98   0.0322    870.2983   1103.6595 -66.59      2339.15     1.675     1.512      6.305      69.3765  19.6274        147
 3.50   0.0003    860.0699   1224.5084 -53.73     276219.2     2.187     2.076      5.651     69.39223  14.4469        148
 6.06   0.0850    868.7755    939.6843  20.35     886.5798     1.410     1.024      5.745     69.43152  20.6807        149
 6.07   0.1262    860.3856   1157.3900 -40.75      597.043     1.043     0.950      5.077     69.40009  21.1100        150
 6.11   0.1747    859.2457   1339.6561 -65.63     431.6259     1.116     0.876      4.329     69.42366  21.4622        151
 7.31   0.0836    845.3869   1206.3982 -18.93     901.3387     0.968     0.807      5.810      69.4158  20.6628        152
 6.09   0.1521    845.9082   1063.6815 -35.52     495.7362     0.984     0.825      4.563     69.40794  21.3119        153
