#   1 KRON_RADIUS            Kron apertures in units of A or B                         
#   2 Y_IMAGE                Object position along y                                    [pixel]
#   3 MAG_BEST               Best of MAG_AUTO and MAG_ISOCOR                            [mag]
#   4 FLUX_BEST              Best of FLUX_AUTO and FLUX_ISOCOR                          [count]
#   5 X_IMAGE                Object position along x                                    [pixel]
#   6 THETA_IMAGE            Position angle (CCW/x)                                     [deg]
#   7 A_IMAGE                Profile RMS along major axis                               [pixel]
#   8 B_IMAGE                Profile RMS along minor axis                               [pixel]
#   9 MAGERR_BEST            RMS error for MAG_BEST                                     [mag]
#  10 NUMBER                 Running object number                                     
#  11 FLUXERR_BEST           RMS error for BEST flux                                    [count]
 3.87     54.0606  16.4655     43031.22     63.4906  10.24     5.079     4.642   0.0049          1      193.874
 3.50     17.6089  18.6427     5793.242    984.8857 -88.11     4.179     1.842   0.0189          2     100.5898
 3.50     18.7909  19.0751      3889.92     91.0583 -77.68     1.665     1.590   0.0165          3     59.13771
 3.50     15.4372  18.0445     10050.32   1445.5699 -58.56     1.765     1.663   0.0068          4     62.48773
 8.71      7.7679  21.9630     272.1539   1469.4524 -68.75     0.745     0.449   0.2054          5     51.46277
 5.20      4.5160  21.6079     377.4186    145.3089  44.41     1.257     0.896   0.1564          6     54.35074
 7.14     10.4944  22.3944     182.9064   1183.4982  44.88     0.503     0.497   0.2295          7     38.65202
 3.50     60.5870  16.3520     47777.05   1078.2454  78.89     2.101     1.994   0.0017          8     73.70651
 7.81     14.3362  22.8350      121.897    839.6812  45.80     0.572     0.336   0.3200          9     35.92011
 3.71     25.5086  20.7714     815.5618    367.0246 -44.58     1.386     1.224   0.0658         10     49.44383
 3.96     17.9751  21.8106     313.1539    384.0876  -6.21     1.065     0.750   0.1212         11     34.96207
 3.50    182.7325  13.5540     628639.9   1107.3342 -33.02     5.842     5.048   0.0003         12     196.4835
 7.95     24.5880  21.5114     412.5127    383.1618  87.82     1.000     0.715   0.1822         13     69.19193
 7.77     35.5278  21.5152     411.0596   1110.5074  83.69     1.018     0.640   0.1714         14     64.88685
 6.92     34.3293  21.3252     489.6743    326.4466 -55.26     1.064     0.824   0.1490         15     67.20037
 5.72     38.8936  21.7549     329.6283   1521.2977  57.82     1.154     0.680   0.1717         16     52.11837
 5.84     39.8461  21.8358     305.9594   1170.4801  -0.97     0.941     0.732   0.1767         17     49.78601
 5.61     45.8528  21.6095     376.8821    440.1219 -39.18     1.403     1.002   0.1972         18     68.45188
 3.50     43.2799  21.9853     266.6208    915.3459 -44.82     1.174     0.700   0.1300         19     31.91586
 3.50     80.9598  16.4075     45395.29    537.4124 -67.89     2.020     1.918   0.0017         20     71.36602
 6.79     40.5038  22.8249     123.0419   1225.9862 -32.64     0.782     0.319   0.2909         21     32.96255
 6.55     51.1657  22.3382      192.621    265.9854  36.65     0.939     0.465   0.2566         22     45.51041
 6.43     51.0299  22.4865     168.0422   1435.2108 -33.32     0.788     0.497   0.2609         23     40.37072
 6.80     49.3377  23.0656     98.57642   1233.6754  45.58     0.575     0.334   0.3336         24     30.27804
 3.50     75.9613  20.1514     1443.583    127.6706  65.46     1.365     1.260   0.0351         25     46.61609
 5.75     82.8388  21.5227     408.2594    421.4473 -51.35     1.212     0.808   0.1565         26     58.84993
 5.12     91.5345  20.6048     950.8154    376.7948 -74.03     1.886     1.573   0.1037         27     90.83411
 3.50    122.5929  15.9755     67575.17    788.9210 -57.93     2.107     1.961   0.0012         28     73.24439
 3.64     97.3432  19.6457     2300.057     55.9943  -9.78     1.501     1.385   0.0257         29     54.35074
 6.18     92.9185  21.7422     333.5238    495.8493  75.14     1.341     0.684   0.1972         30     60.55608
 6.08     98.7693  21.0154      651.375    452.5781 -24.86     1.703     0.981   0.1353         31     81.16087
 4.43     96.5883  22.5793     154.2637   1075.8324  21.36     0.766     0.435   0.1880         32     26.70272
 8.01    114.3489  22.6161     149.1322    270.3333 -45.61     0.584     0.329   0.2717         33     37.31108
 7.06    117.8673  22.5234     162.4226     66.8318  46.85     0.748     0.562   0.3165         34     47.33886
 6.06    118.7044  23.0158     103.2026    990.6282 -41.71     0.576     0.332   0.2876         35      27.3311
 8.28    118.5058  22.6757     141.1593    154.4909  45.33     0.502     0.498   0.3233         36     42.01918
 4.24    235.9001  16.3224     49095.18    403.1562 -56.45     6.429     5.300   0.0057         37     255.5262
 3.50    194.4204  14.3847     292492.9    317.8754 -62.51     2.391     2.159   0.0003         38       81.786
 3.50    163.1395  16.5986     38067.35   1468.1359 -60.49     1.999     1.918   0.0020         39      70.1665
 5.04    132.4922  22.3697     187.1254    418.0420   0.54     0.804     0.500   0.1913         40     32.96255
 3.50    171.1363  18.2266     8498.897    877.1224 -68.32     1.766     1.710   0.0080         41     62.48773
 5.36    147.2958  22.3186     196.1323    353.1507 -30.05     0.879     0.605   0.2235         42     40.37072
 6.86    152.5081  22.5231     162.4594   1279.9960  -1.46     0.803     0.500   0.2915         43     43.60536
 4.82    172.3745  20.3006     1258.237    325.0115 -64.12     1.467     1.346   0.0606         44      70.1665
 3.59    165.8674  20.9474     693.4874   1445.5350  -0.27     1.320     1.134   0.0713         45     45.51041
 4.17    167.5935  21.2441     527.6473    104.3067 -28.86     1.173     1.010   0.0944         46     45.88193
 5.09    170.4302  22.1836     222.1099   1368.2188 -47.27     1.080     0.717   0.2261         47     46.25047
 5.71    169.4399  22.9382     110.8446    651.5150 -35.83     0.503     0.493   0.2911         48     29.71204
 4.46    181.2359  21.8745     295.2533    574.8821  23.27     1.275     0.773   0.1688         49     45.88193
 4.36    193.3881  20.6514     910.8036   1350.3933 -35.33     1.357     1.132   0.0663         50     55.58614
 8.45    186.9876  21.5054     414.7947   1354.0366 -74.11     0.796     0.783   0.1799         51     68.69945
 3.72    211.5532  18.9606     4322.574    827.4822  -7.29     3.936     1.949   0.0266         52     105.6924
 3.50    207.5034  19.9392     1755.155    548.9205 -81.30     1.549     1.369   0.0318         53     51.46277
 7.58    196.0324  22.2360     211.6431    267.5382  56.83     0.765     0.324   0.2072         54     40.37072
 4.87    229.8139  19.7710     2049.233    414.8996 -19.48     1.967     1.652   0.0308         55     58.04004
 3.50    211.4506  21.3038     499.4551    684.4574 -82.33     1.680     1.042   0.1068         56     49.09927
 4.07    209.4233  20.6121     944.3723    349.7025  43.13     1.598     1.217   0.0690         57     59.99275
 3.50    204.3587  21.9811     267.6458    250.6058 -42.34     0.981     0.848   0.1358         58     33.47363
 3.50    212.9739  20.0106       1643.4   1305.9009  53.84     1.403     1.346   0.0320         59     48.40279
 4.51    231.0750  18.9798     4246.785    562.2184  -9.41     3.381     2.852   0.0369         60     144.3876
 3.50    204.4280  23.0584     99.23352   1498.4841 -36.27     0.505     0.489   0.2209         61     20.18536
 7.06    205.7527  22.4535     173.2189    937.2287 -19.28     0.855     0.346   0.2478         62     39.52071
 3.57    224.5217  19.7379     2112.648   1225.8657 -53.97     1.548     1.416   0.0281         63     54.66221
 3.50    260.5782  15.5206     102743.3    997.2145 -60.88     2.174     2.033   0.0008         64      75.5267
 3.50    266.7132  15.7061     86609.15     67.3777 -78.85     2.116     1.998   0.0009         65     73.70651
 5.20    223.1785  20.7912     800.7629    345.6050 -22.38     1.579     1.463   0.1098         66     80.95142
 3.50    223.2261  21.2242     537.4136    774.7524 -19.32     1.202     1.068   0.0833         67     41.20319
 7.24    219.2476  22.3000     199.5187    740.7268 -18.84     0.845     0.353   0.2220         68     40.78908
 4.32    244.2684  20.1776     1409.202    112.8208  77.16     2.123     1.544   0.0619         69     80.31981
 4.49    256.2215  19.1196     3733.852    612.7909 -37.89     2.503     1.802   0.0287         70     98.71583
 6.09    239.9036  21.2565     521.6777    838.4949 -37.93     1.369     1.007   0.1544         71     74.16574
 5.00    240.0472  22.6188     148.7583   1478.8186 -53.93     0.940     0.464   0.2480         72     33.97702
 3.50    313.2080  14.1634     358609.2    439.2092 -58.52     2.401     2.209   0.0003         73     83.22636
 6.70    252.6677  21.2288     535.1672   1372.6152 -44.30     1.226     0.877   0.1453         74     71.60352
 6.94    251.4614  21.2589      520.522    107.4959 -45.23     1.084     0.836   0.1428         75     68.45188
 5.43    254.3471  22.4383     175.6583   1352.5072   0.00     0.868     0.476   0.2278         76     36.85326
 3.50    288.3375  17.2908     20123.32   1486.2755 -55.67     1.869     1.782   0.0036         77     66.18213
 3.50    282.7324  18.9869     4219.441   1522.1934 -43.42     1.561     1.489   0.0143         78     55.58614
 6.94    271.2609  21.2774     511.7219   1273.5472 -11.08     1.161     0.926   0.1584         79     74.62215
 3.57    290.6129  19.9978     1663.002    514.7311 -61.03     1.859     1.552   0.0412         80     63.02876
 3.50    319.4862  16.1166     59340.31    905.2509 -61.70     2.069     1.942   0.0013         81     72.31131
 3.50    303.9936  17.6248     14794.44    201.5941 -73.78     1.829     1.708   0.0047         82     64.62468
 5.16    297.8686  20.4923     1054.587   1413.5083 -39.26     2.150     1.549   0.1000         83     97.15569
 3.56    294.7549  19.9191     1787.919   1327.3584 -23.02     1.400     1.322   0.0307         84      50.4634
 3.50    352.2489  14.3402     304744.2   1345.7200 -52.96     2.313     2.158   0.0003         85     80.31981
 3.50    352.2323  14.2997       316302    890.5778 -52.57     2.350     2.174   0.0003         86       81.786
 6.19    294.2966  21.0743     617.0115   1475.4912 -66.12     1.171     0.977   0.1196         87     67.95404
 3.50    302.8696  20.9291     705.2452    563.5292  64.37     1.321     1.261   0.0701         88     45.51041
 3.50    322.8518  18.0956     9588.647    697.1324 -67.39     1.711     1.657   0.0068         89     60.27507
 6.40    309.7060  21.1138     594.9465     85.4069 -81.45     1.983     0.885   0.1610         90     88.17868
 5.00    322.1810  20.8739     742.0648    641.0074 -76.22     2.195     1.269   0.1256         91     85.83723
 4.49    328.1170  19.9584      1724.36    595.2689 -50.18     1.627     1.559   0.0471         92     74.84931
 5.36    317.8036  22.7052     137.3737    226.3809 -71.76     0.752     0.447   0.2481         93     31.37942
 3.66    347.0935  18.5106     6542.492    866.9109 -38.15     1.821     1.669   0.0110         94     66.43815
 5.35    332.8581  21.4647     430.6477     93.4377  -7.83     1.068     0.836   0.1339         95      53.0866
 4.20    330.3324  22.2134     216.0994   1545.6162  -6.15     0.994     0.631   0.1732         96     34.47306
 4.50    335.7877  21.7008     346.4821   1440.3218 -48.97     0.986     0.855   0.1330         97     42.42128
 3.79    356.5633  18.7126     5431.816    431.6613 -76.63     1.957     1.739   0.0144         98     71.84022
 3.50    350.8575  20.7319     845.7324     54.4747 -39.25     1.290     1.224   0.0575         99     44.75812
 5.14    348.6108  22.4368     175.9059     42.2829 -59.05     0.983     0.545   0.2440        100     39.52071
 3.50    368.9762  18.0596      9911.62    760.8817 -55.02     1.739     1.636   0.0066        101     59.99275
 7.08    351.1112  21.8716     296.0448    920.2661 -17.72     0.939     0.676   0.2127        102     57.97803
 3.50    362.0320  19.9861     1681.042   1500.1698  10.15     1.428     1.398   0.0326        103      50.4634
 3.61    368.2886  19.1189     3736.442    442.6443 -44.79     1.606     1.455   0.0166        104     57.09282
 6.16    353.6877  22.8332     122.0979    350.3493  43.36     0.575     0.334   0.2539        105     28.54641
 3.50    396.0084  16.3053     49872.85    231.2756 -59.51     2.003     1.932   0.0015        106      70.1665
 6.26    360.5867  21.5921     382.9711    533.2850  21.62     1.031     0.915   0.1795        107     63.29754
 3.53    361.4968  21.6572     360.6892   1033.7421 -34.22     1.094     0.910   0.1067        108     35.44432
 5.96    363.8832  22.3793     185.4641   1415.6968 -78.20     1.038     0.416   0.2364        109     40.37072
 3.50    373.7502  21.2234     537.8372    992.1270 -58.62     1.191     1.021   0.0789        110     39.08878
 4.95    373.9765  21.4487     437.0312   1083.8434 -45.30     1.443     1.000   0.1519        111     61.11421
 6.12    369.9420  22.4069     180.8215    210.5096  87.58     0.786     0.499   0.2374        112     39.52071
 6.59    371.1455  21.5941     382.2458     71.4292 -16.36     1.204     0.716   0.1806        113     63.56519
 6.58    376.9810  21.1286     586.8914    753.9877  38.43     1.723     0.867   0.1544        114     83.43011
 3.50    397.8752  18.4889     6674.975   1461.0035 -57.54     1.678     1.607   0.0096        115     58.84993
 5.17    376.6144  22.0463     252.0526     86.3840  23.01     1.364     0.457   0.1810        116     42.01918
 3.50    398.9585  18.2919     8002.958    354.4046 -56.82     1.759     1.641   0.0084        117     61.94198
 5.97    380.9103  22.1786     223.1406    125.6369 -22.70     0.902     0.682   0.2373        118     48.75227
 3.64    394.5150  19.9679     1709.316   1088.6681 -16.65     1.553     1.372   0.0347        119     54.66221
 3.50    420.3994  16.3971     45832.43    433.1460 -57.35     1.997     1.878   0.0017        120     69.92413
 3.50    416.4439  17.2021     21834.44    837.1794 -67.30     1.895     1.794   0.0033        121     66.94727
 5.36    390.0044  22.4118     180.0017   1195.2917  85.80     0.739     0.674   0.2305        122     38.21027
 6.62    390.2305  22.5251     162.1672    260.4030  71.18     0.744     0.452   0.2618        123     39.08878
 4.81    397.2771  22.0152     259.3776    977.5050 -21.24     1.103     0.780   0.1936        124     46.25047
 5.97    397.9344  21.3891      461.718    626.5070  15.77     1.528     0.795   0.1627        125     69.19193
 3.50    440.8153  21.2425     528.4319    305.5588 -50.74     1.189     1.082   0.0847        126     41.20319
 6.01    407.6977  22.3233     195.2987    281.6329 -82.40     1.007     0.467   0.2425        127     43.60536
 7.28    415.6719  21.6952     348.2639      2.5615  28.95     1.141     0.754   0.1771        128     56.79468
 7.80    404.5128  21.7632     327.1414    526.8889  -1.99     0.784     0.499   0.1675        129      50.4634
 3.50    425.0124  19.0809     3869.398    926.1458 -46.76     1.635     1.521   0.0160        130     57.09282
 3.50    461.8470  15.1646     142617.7    807.3679 -54.81     2.148     2.048   0.0006        131     75.75114
 7.26    413.7131  22.1286     233.6384   1562.2982 -60.78     1.155     0.451   0.2512        132     54.03748
 3.50    438.7642  17.5347     16073.22    251.9271 -54.88     1.813     1.728   0.0043        133     64.09712
 4.91    421.8596  20.6916     877.7545    158.7295  50.88     1.660     1.444   0.0970        134     78.39442
 5.46    412.6987  23.2302     84.70972    199.3263  43.64     0.560     0.342   0.3256        135     25.39935
 9.12    415.3152  22.3691     187.2247    558.6304  42.89     0.584     0.328   0.2342        136     40.37072
 6.12    419.5396  21.9605     272.7778   1203.5216  13.28     1.222     0.608   0.2189        137     54.97191
 3.50    433.6358  20.3284     1226.428   1421.9036 -17.73     1.428     1.337   0.0444        138     50.12585
 6.05    427.7109  21.2489     525.3582   1179.3110  20.69     1.296     0.986   0.1460        139     70.64876
 5.64    420.6244  22.7098     136.8037   1579.7715  17.88     0.757     0.446   0.2697        140     33.97702
 7.11    424.8950  21.9011     288.1119   1063.8502 -46.61     0.815     0.670   0.2072        141     54.97191
 6.86    431.8513  21.4890     421.1068    717.7710 -64.55     0.930     0.895   0.1680        142     65.14796
 5.00    434.9498  21.2526     523.5742    151.0015  25.47     1.154     0.980   0.1127        143     54.35074
 4.46    468.5386  18.3736     7422.975    850.1890  22.22     7.442     1.903   0.0254        144     173.4454
 3.51    451.1122  18.7778     5115.388     21.1382 -39.37     1.703     1.572   0.0126        145     59.42409
 5.35    446.1109  20.6825     885.1393    122.1262 -32.70     1.653     1.204   0.0967        146     78.82635
 7.20    434.6680  22.7141     136.2568    353.3013  46.61     0.562     0.341   0.2501        147     31.37942
 3.57    448.0235  20.7527     829.6637    884.3464  -1.26     2.252     1.419   0.0863        148     65.92511
 3.50    458.6750  18.6701     5648.761     34.3958 -60.50     1.679     1.537   0.0112        149     58.27011
 5.33    444.1706  22.8510     120.1196    654.5854 -70.39     0.757     0.448   0.2933        150     32.44342
 3.53    464.5988  19.9124     1798.967    468.4730 -73.92     1.596     1.441   0.0332        151     54.97191
 4.28    453.8176  22.3612     188.5828   1533.1399  37.42     0.790     0.678   0.1898        152     32.96255
 5.10    461.9113  21.2947     503.6198   1096.1396  54.35     1.156     1.063   0.1263        153     58.56074
 3.50    472.0582  20.1379     1461.691    254.1115 -72.83     1.524     1.321   0.0380        154     51.13182
 5.22    462.3787  21.8556     300.4543    724.6503 -28.34     1.116     0.728   0.1724        155     47.69614
 7.22    457.7005  22.6460     145.0743   1223.6603 -42.96     0.565     0.339   0.2389        156     31.91586
 3.50    472.9619  19.7192     2149.442    734.7728 -38.58     1.496     1.347   0.0258        157     51.13182
 3.50    478.7596  19.4223      2825.51    922.8173 -35.41     1.544     1.447   0.0208        158     54.03748
 3.92    478.7934  20.6072     948.7179   1276.8331 -53.38     1.380     1.256   0.0608        159      53.0866
 4.44    476.5136  22.4692     170.7378   1168.0371 -89.76     0.813     0.676   0.2161        160     33.97702
 4.27    533.7934  17.2580     20739.54    518.6295  28.40     4.107     3.566   0.0088        161     168.3795
 3.50    484.9557  20.3381     1215.531   1070.4277 -66.11     1.365     1.226   0.0416        162     46.61609
 7.96    473.4778  22.3849     184.5258    781.5225  45.02     0.505     0.494   0.2473        163     42.01918
 4.94    496.9649  19.6005     2397.827     82.5904  56.28     2.338     2.068   0.0509        164     112.3873
 5.19    489.7222  21.0416     635.8462    839.5610  85.43     1.974     0.945   0.1251        165     73.24439
 4.09    496.5237  19.6987     2190.413   1186.6776 -15.91     2.961     1.842   0.0489        166     98.71583
 4.58    481.6935  22.1324     232.8306   1309.1306  71.28     0.894     0.694   0.1782        167     38.21027
 3.62    479.8593  22.2022     218.3352    682.6145  17.68     1.030     0.720   0.1587        168     31.91586
 5.99    481.6788  22.5474     158.8745   1520.4889  -0.10     0.921     0.467   0.2760        169     40.37072
