#   1 KRON_RADIUS            Kron apertures in units of A or B                         
#   2 MAGERR_APER            RMS error vector for fixed aperture mag.                   [mag]
#   3 Y_IMAGE                Object position along y                                    [pixel]
#   4 X_IMAGE                Object position along x                                    [pixel]
#   5 THETA_IMAGE            Position angle (CCW/x)                                     [deg]
#   6 FLUX_APER              Flux vector within fixed circular aperture(s)              [count]
#   7 A_IMAGE                Profile RMS along major axis                               [pixel]
#   8 B_IMAGE                Profile RMS along minor axis                               [pixel]
#   9 FLUX_RADIUS            Fraction-of-light radii                                    [pixel]
#  10 FLUXERR_APER           RMS error vector for aperture flux(es)                     [count]
#  11 MAG_APER               Fixed aperture magnitude vector                            [mag]
#  12 NUMBER                 Running object number                                     
 3.50   0.0000    181.0296   1105.8228 -42.25      2525723     6.881     6.329     10.458     83.78378  12.0440          1
 3.54   0.0006     52.5032     61.8569   6.63     152051.2     7.099     6.376     16.104     83.70791  15.0950          2
 3.50   0.0004     58.9559   1076.9435  80.37     241637.6     2.158     2.036      3.975      83.7743  14.5921          3
 3.50   0.0036     15.7470    983.4686 -87.92     25028.88     4.573     2.016      8.400     83.74586  17.0539          4
 3.73   0.0206     23.8459    365.4448  11.92     4418.389     1.434     1.383      3.673     83.81222  18.9368          5
 3.50   0.0450     16.2665    382.9738 -57.39     2024.071     1.490     1.235      3.271     83.79326  19.7844          6
 3.50   0.0044     17.0171     89.4665 -23.70     20542.43     1.716     1.678      3.654     83.80274  17.2684          7
 3.50   0.0017     13.8082   1444.2325 -50.19     53120.95     1.769     1.738      3.600     83.79326  16.2368          8
 4.05   0.0862     13.3555    839.4698 -68.25     1054.656     1.795     1.158      4.206     83.75534  20.4922          9
 4.15   0.1620     14.6512   1561.4030 -38.91     562.1163     1.002     0.868      3.004     83.84064  21.1754         10
 3.50   0.0989      9.1762   1182.2531  63.97     920.9855     1.114     1.082      2.932     83.83117  20.6394         11
 3.64   0.1256      5.9200   1467.9447   2.76     693.5865     1.195     1.150      3.557     80.19953  20.9472         12
 4.51   0.0366      3.6409    143.2160  56.00     2165.891     1.759     1.589      5.076     73.01447  19.7109         13
 4.61   0.0900      3.7293    183.8148   1.75     884.9203     1.337     1.145      4.138     73.35092  20.6827         14
 6.48   0.2062      2.6827    843.3784  20.12     364.6396     0.943     0.580      4.344     69.22861  21.6453         15
 7.85   0.3057      3.3090    161.3352 -43.71      254.807     0.567     0.338      3.404     71.73043  22.0345         16
 6.10   0.1412      1.9306    302.4750   3.63     507.7365     1.017     0.770      4.310     65.99814  21.2859         17
 3.50   0.0638     23.0219    381.4543  30.95     1427.317     1.368     1.245      3.680     83.82169  20.1637         18
 4.55   0.1578     17.2580   1213.4838   6.75     576.3663     0.955     0.928      2.271     83.73637  21.1483         19
 5.73   0.2664     15.4904    192.9885  -3.25     341.4741     0.790     0.499      2.955     83.76482  21.7166         20
 4.13   0.0347     33.0241   1108.5377  63.75     2625.769     2.110     1.333      4.605     83.81222  19.5019         21
 5.12   0.1274     22.8372    696.7354  15.02     714.4084     0.929     0.844      3.205     83.79326  20.9151         22
 4.71   0.3134     20.9592    212.0401 -46.19     290.4429     0.811     0.765      3.107     83.81222  21.8923         23
 5.50   0.1281     24.3048   1451.6566 -46.65     709.6845     1.023     0.860      4.231      83.7174  20.9223         24
 7.45   1.9707     21.3406    883.3214 -45.85     46.15514     0.575     0.334      2.191     83.75534  23.8894         25
 4.98   0.0515     32.4049    324.9523 -19.39      1767.64     1.570     1.318      4.336     83.84064  19.9315         26
 6.99   0.2792     24.8344    529.8267  45.19     325.9484     0.760     0.567      3.351     83.79326  21.7671         27
 6.78   0.1467     25.9974    701.2047  -0.88     620.1271     0.932     0.740      4.721     83.75534  21.0688         28
 6.95   0.5453     23.6851    201.6656 -44.07     166.7744     0.570     0.337      2.331     83.73637  22.4947         29
 6.46   0.0981     33.6780     14.7194  82.00     926.8443     1.082     0.904      5.881     83.73637  20.6325         30
 4.23   0.0537     37.9955   1169.1996  16.63     1695.556     1.355     1.226      3.802     83.76482  19.9767         31
 4.78   0.0548     43.3518    438.6536 -54.40     1661.892     1.744     1.376      4.861     83.79326  19.9985         32
 6.54   0.1770     33.5299   1066.4965  70.90     513.9138     0.976     0.407      2.980     83.74586  21.2728         33
 3.50   0.0004     79.0630    535.8602 -62.01     231896.7     2.009     1.977      3.773     83.75534  14.6368         34
 3.67   0.0733     37.0430   1519.9758 -48.34     1241.816     1.177     1.064      2.620     83.82169  20.3149         35
 7.91   1.9802     29.6498   1486.2804  48.74     45.92966     0.560     0.340      2.728     83.74586  23.8948         36
 3.95   0.0641     41.5129    913.8262 -66.99      1419.58     1.220     1.086      2.895     83.78378  20.1696         37
 3.50   0.1703     38.4746   1224.7139 -32.27     533.8276     1.302     0.820      2.839      83.7174  21.2315         38
 4.68   0.0774     49.2970    263.4306 -79.50     1174.046     1.648     1.214      4.155     83.72688  20.3758         39
 4.52   0.2115     42.5328    226.6916  37.05     430.0067     1.066     0.788      3.332     83.74586  21.4663         40
 7.32   0.2384     39.4763   1126.5161 -43.94     381.4156     0.504     0.495      2.707     83.72688  21.5965         41
 3.50   1.3849     41.6014   1000.3078  -4.50     65.67751     1.022     0.615      2.053     83.75534  23.5065         42
 4.49   0.2140     46.5404   1429.2076  19.51     425.4164     0.905     0.891      2.449     83.84064  21.4780         43
 5.04   0.1517     46.7716    664.5160 -28.15     599.6498     1.022     0.796      3.283      83.7743  21.1053         44
 6.98   0.1883     45.8466    473.1279  44.45     483.0383     0.808     0.685      3.998     83.75534  21.3400         45
 3.50   0.0986     49.4517   1433.9252   8.93     922.1155     1.249     0.995      2.923     83.72688  20.6380         46
 6.66   0.1071     50.4632    119.8189  88.19     850.1579     0.918     0.737      5.143     83.80274  20.7262         47
 8.29   0.2142     49.4858    879.5351 -64.51     424.4061     0.500     0.498      3.001     83.72688  21.4805         48
 4.00   0.0768     65.0373   1146.2700 -19.42     1185.211     1.455     1.392      4.442     83.79326  20.3655         49
 6.21   0.2593     58.7776    468.9168  54.51      350.908     1.087     0.522      3.241     83.78378  21.6870         50
 7.78   0.4007     54.2825    319.3522 -41.35     226.9804     0.562     0.339      2.262     83.74586  22.1600         51
 4.60   0.3470     57.3253   1240.1503 -31.73     262.0366     0.863     0.589      2.783     83.72688  22.0041         52
 3.50   0.0107     74.1105    126.4833 -36.10     8526.572     1.530     1.474      3.345     83.73637  18.2231         53
 5.41   0.1253     66.8107   1414.1892 -69.13     725.9416     1.198     0.929      4.277     83.74586  20.8977         54
 3.50   0.4430     65.5495   1514.6031 -73.16     205.5285     0.924     0.799      2.536     83.84064  22.2678         55
 3.50   0.0003    120.9312    787.4824 -57.20     344542.4     2.073     2.034      3.847     83.72688  14.2069         56
 7.50   0.0818     68.4357     17.8169  35.71     1112.416     1.151     0.973      6.905     83.81222  20.4343         57
 4.64   0.1614     70.9651   1320.5903 -84.80     563.6802     1.112     0.932      3.480     83.79326  21.1724         58
 3.83   0.0007    234.0933    401.6226 -45.79     139244.6     9.644     8.194     24.256     83.75534  15.1906         59
 3.59   0.0420     81.3172    419.7298 -85.96     2165.916     1.602     1.353      3.777      83.7174  19.7109         60
 6.29   0.2250     73.4404   1255.7075 -58.14     403.9134     0.952     0.539      3.364     83.69842  21.5343         61
 3.90   0.0195     89.6596    375.3848 -14.03     4656.024     2.441     2.077      5.738     83.78378  18.8800         62
 3.50   0.1683     78.7103   1031.9065 -22.65      540.364     1.134     1.001      3.065      83.7174  21.2183         63
 6.49   0.2506     73.9819    732.3007  89.78     362.9609     0.725     0.670      3.155     83.75534  21.6503         64
 3.50   0.0071     95.5663     54.3909  51.62     12867.06     1.658     1.655      3.767     83.79326  17.7763         65
 3.50   0.0001    192.5904    316.2847 -63.44      1474690     2.961     2.390      4.075     83.78378  12.6282         66
 6.31   0.0858     82.9323    930.9177  37.71     1060.468     1.231     1.035      6.234     83.74586  20.4863         67
 5.38   0.0702     87.5712    757.1959  61.74     1296.567     1.374     1.216      5.723     83.78378  20.2680         68
 5.60   0.2158     84.9324   1559.1282  58.80     421.1867     1.169     0.614      3.776     83.70791  21.4888         69
 4.19   0.1370     87.0815   1358.2363 -69.50     663.8923     1.154     1.013      3.894      83.7743  20.9948         70
 6.34   0.0969     86.6410    862.2183 -36.08     938.9728     1.383     1.055      5.704     83.81222  20.6184         71
 5.11   0.0882     90.7756   1043.8887  54.94     1031.353     1.555     1.059      4.848     83.76482  20.5165         72
 3.78   0.0702     90.5975    494.1282  81.08      1297.48     1.228     1.172      3.215     83.82169  20.2672         73
 5.96   0.1547     87.9500    810.6520 -59.04     588.1627     1.152     0.679      3.955     83.80274  21.1263         74
 7.27   0.3578     84.0238    843.5171  58.19      254.311     0.805     0.310      2.558     83.78378  22.0366         75
 6.96   0.1370     85.7783    923.1915 -46.11     663.9716     0.760     0.561      4.239      83.7743  20.9946         76
 3.82   0.0306     97.1525    451.0917 -16.71     2967.107     2.196     1.322      5.008      83.7174  19.3692         77
 5.00   0.0641     94.6540   1074.7657  36.16     1419.119     1.365     1.159      4.639     83.78378  20.1700         78
 8.28   0.3549     86.6779    735.3154  45.35     256.2378     0.565     0.340      3.154     83.72688  22.0284         79
 4.25   0.2037     94.2043    387.5448   0.76     447.1103     0.927     0.726      2.331     83.85011  21.4240         80
 6.56   0.4489     95.8181    559.6128  71.51     202.6636     0.746     0.449      2.831     83.76482  22.2831         81
 7.17   0.3095     93.5128    870.5064 -44.88     293.7112     0.514     0.485      2.903     83.70791  21.8802         82
 8.22   0.2951     93.6777    667.6960 -46.00     308.0051     0.559     0.342      3.116     83.70791  21.8286         83
 5.57   0.1166    101.6471    517.3776  40.57     780.5736     1.095     0.938      4.424     83.80274  20.8190         84
 5.75   0.0716    112.8001    268.6048  65.26     1271.101     1.678     1.406      6.510     83.75534  20.2895         85
 5.72   0.1314    106.8065   1420.9231 -54.99     692.3436     1.092     0.781      3.964     83.79326  20.9492         86
 7.34   0.0921    106.3212   1098.3352  38.03     987.2308     0.987     0.868      5.924     83.72688  20.5640         87
 4.71   0.1620    107.3404    861.3599  41.75     561.6226     0.979     0.859      2.714     83.79326  21.1764         88
 6.30   0.1714    106.1865    180.1313 -42.16     531.0618     0.824     0.664      3.543     83.83117  21.2371         89
 4.32   0.0902    114.3147    414.2264 -71.35     1008.708     1.316     1.033      4.027      83.7743  20.5406         90
 3.50   0.1291    116.6593    152.4440  88.98     704.7336     1.188     0.965      2.628      83.7743  20.9299         91
 4.56   0.0621    116.2464     65.1732  11.72     1466.666     1.762     1.154      4.578     83.82169  20.1342         92
 4.16   0.2087    109.9876   1513.4553   2.39     436.1324     1.010     0.771      2.888     83.82169  21.4510         93
 3.85   0.1151    116.0682    989.4073 -19.19     790.6703     1.228     1.077      3.053     83.83117  20.8050         94
 4.23   0.2563    117.5243    911.9736 -62.07     355.0142     1.044     0.659      2.559      83.7743  21.6744         95
 8.14   0.2062    112.6601   1411.6680 -45.33     441.0651     0.580     0.332      2.342     83.74586  21.4387         96
 5.98   1.9921    114.5148   1578.5339  47.34     45.63939     0.505     0.494      2.747      83.7174  23.9016         97
 3.70   0.0721    125.3379    492.5833   3.06     1261.281     1.713     1.248      4.127      83.7743  20.2980         98
 3.50   0.0005    161.4548   1466.8226 -54.15     195552.3     1.970     1.933      3.775     83.81222  14.8218         99
 7.95   0.3048    118.4862   1400.5142 -45.04     298.2665     0.503     0.497      2.773      83.7174  21.8635        100
 4.11   0.1575    128.2080    884.2949  61.76     577.5711     1.036     0.870      3.347     83.76482  21.1460        101
 6.76   0.4036    120.6424   1436.3108  46.99     225.3403     0.577     0.333      3.464     83.75534  22.1679        102
 4.53   0.0730    130.2060    416.2736  57.94     1246.304     1.102     1.059      3.488     83.82169  20.3109        103
 3.99   0.1890    127.2104   1476.9792  79.81     481.3792     0.886     0.738      2.242     83.76482  21.3438        104
 7.52   0.2753    122.6954    867.3506  42.87     330.1262     0.572     0.336      3.102     83.68893  21.7533        105
 6.84   0.1430    126.1398   1371.8470 -45.71     636.3861     0.761     0.572      4.145      83.7743  21.0407        106
 5.53   0.0643    141.1429    884.2939  52.30     1415.156     2.329     1.036      7.270     83.72688  20.1730        107
 7.98   0.0645    135.9272   1130.5630 -45.79      1409.92     1.045     0.901      6.273     83.78378  20.1770        108
 8.31   0.2170    129.4938    461.4677  78.84     419.0645     0.500     0.499      3.000     83.73637  21.4943        109
 5.93   0.4819    134.4130     97.8696 -63.58      188.936     1.112     0.573      3.257     83.83117  22.3592        110
 4.87   0.2152    138.0558   1599.6447 -89.12      320.052     1.090     0.478      2.676     63.42052  21.7869        111
 5.05   0.0509    145.7942    352.3351 -51.85     1789.983     1.481     1.254      5.312     83.83117  19.9179        112
 7.46   0.2663    134.3024   1274.6630  43.25       341.52     0.565     0.339      2.527     83.74586  21.7165        113
 3.50   0.0021    169.2852    875.6418 -68.51     43942.75     1.823     1.787      3.717     83.76482  16.4428        114
 4.03   0.0816    150.6898   1278.8584  72.69     1114.658     1.240     1.089      3.124     83.73637  20.4321        115
 3.50   0.1349    154.4591     80.7073 -48.65      674.155     1.139     0.952      2.601     83.72688  20.9781        116
 4.10   0.0214    164.2565   1444.3588  51.65     4258.301     1.599     1.386      4.131     83.76482  18.9769        117
 4.97   0.1270    155.3039   1578.5997  44.99     716.0156     1.015     0.894      3.786     83.76482  20.9127        118
 5.33   0.0149    207.7797    348.2331  43.15     6120.707     2.397     1.657      8.565     83.79326  18.5830        119
 4.66   0.0864    164.9023    574.8923  77.87     1051.928     1.442     1.087      3.826     83.70791  20.4950        120
 6.05   0.2617    154.6779    822.9031   8.95     347.4059     0.733     0.673      3.098      83.7174  21.6979        121
 3.50   0.0333    165.7311    102.5888 -27.00     2733.012     1.371     1.226      3.038     83.83117  19.4584        122
 6.37   0.2138    155.9932   1007.4714 -87.59     425.7704     0.790     0.499      2.783     83.82169  21.4771        123
 7.72   0.0487    165.8160   1054.6110 -30.57     1867.486     1.402     1.251      8.410     83.76482  19.8719        124
 5.29   0.2106    159.0999    491.2162   9.72     431.9791     1.163     0.720      3.842     83.76482  21.4613        125
 4.82   0.0500    168.4566   1367.4496 -10.39     1819.546     1.311     1.213      4.410      83.7743  19.9001        126
 4.37   0.1582    164.4116   1196.3029  10.55     575.0574     1.049     0.910      2.773     83.74586  21.1507        127
 4.70   0.0775    167.8858    649.6248   1.54     1173.759     1.369     1.140      4.272      83.7743  20.3761        128
 4.30   0.0450    179.1838    573.4161  29.87      2021.23     1.836     1.480      5.177     83.78378  19.7860        129
 6.37   0.8256    168.7838    168.6011  71.45     110.1762     0.755     0.450      2.266     83.75534  22.9448        130
 5.92   0.0900    174.9443   1199.0182 -74.34     1010.568     1.198     1.159      4.805     83.79326  20.5386        131
 6.47   0.2671    172.5069     30.0436  89.14     340.3711     0.830     0.681      3.576     83.70791  21.7201        132
 7.22   0.1825    172.9824   1017.2438  89.15     498.6702     0.688     0.429      3.222     83.80274  21.3055        133
 5.22   0.0350    185.8885   1353.4348 -86.38      2597.11     1.682     1.552      7.048     83.76482  19.5138        134
 3.89   0.0182    191.7777   1349.0513 -14.74     4994.261     1.449     1.429      3.512     83.82169  18.8038        135
 7.01   0.1536    182.4289     58.2628 -47.61      592.249     1.098     0.734      4.352     83.78378  21.1187        136
 3.53   0.0048    209.8705    826.0511  -8.35     18986.86     5.112     2.351     10.210     83.74586  17.3539        137
 6.93   0.0562    189.4461   1026.0288 -10.76     1618.682     1.459     1.347      8.585     83.82169  20.0271        138
 3.77   0.0055    229.0276    560.6634 -21.29     16580.52     4.108     3.773     10.309     83.79326  17.5010        139
 6.24   0.1467    186.3875    834.7411 -21.62     620.3092     1.142     0.860      4.409     83.80274  21.0685        140
 7.52   0.3541    183.4922    493.5123  45.64     256.7205     0.502     0.498      3.012     83.70791  22.0263        141
 5.68   0.0504    194.1933    266.3272  -1.40     1804.611     1.870     1.234      6.855     83.82169  19.9090        142
 3.50   0.0100    205.7529    547.4427  63.58      9146.15     1.507     1.494      3.345     83.80274  18.1469        143
 3.50   0.0002    264.9552     65.7536 -50.95     441373.8     2.195     2.108      3.871     83.82169  13.9380        144
 5.83   0.0991    194.8752    447.8389 -56.33      918.113     1.100     0.979      4.966      83.7743  20.6428        145
 3.50   0.0002    258.9338    995.8009 -40.44     597534.6     2.230     2.119      3.900     83.83117  13.6091        146
 7.96   0.0669    193.7061   1158.2716 -23.86     1358.348     1.082     0.880      6.489     83.73637  20.2175        147
 3.50   0.0099    211.4034   1304.6565 -42.51     9244.107     1.532     1.512      3.485     83.85011  18.1353        148
 3.81   0.0336    209.9437    683.1042 -79.22     2709.106     1.702     1.387      4.131      83.7174  19.4679        149
 4.43   0.0429    202.4641    249.1790 -50.77     2120.651     1.296     1.190      4.016     83.81222  19.7338        150
 4.09   0.1413    204.8055    182.1850 -42.90     643.8451     1.107     0.937      3.317     83.75534  21.0280        151
 6.48   0.1100    204.5180    935.3230  -9.34     826.6304     1.115     0.878      5.486     83.74586  20.7567        152
 5.85   0.0194    221.6086    343.9922  22.25     4690.378     2.256     2.120     10.727     83.75534  18.8720        153
