#   1 KRON_RADIUS            Kron apertures in units of A or B                         
#   2 Y_IMAGE                Object position along y                                    [pixel]
#   3 MAG_BEST               Best of MAG_AUTO and MAG_ISOCOR                            [mag]
#   4 FLUX_BEST              Best of FLUX_AUTO and FLUX_ISOCOR                          [count]
#   5 X_IMAGE                Object position along x                                    [pixel]
#   6 THETA_IMAGE            Position angle (CCW/x)                                     [deg]
#   7 A_IMAGE                Profile RMS along major axis                               [pixel]
#   8 B_IMAGE                Profile RMS along minor axis                               [pixel]
#   9 MAGERR_BEST            RMS error for MAG_BEST                                     [mag]
#  10 NUMBER                 Running object number                                     
#  11 FLUXERR_BEST           RMS error for BEST flux                                    [count]
 4.25     94.1570  17.0992     24006.48   1124.7493 -68.11     8.199     3.769   0.0109          1     241.9702
 4.95     47.3470  19.1034     3790.147     46.5410 -16.09     3.493     3.138   0.0481          2      167.893
 3.50     32.9521  18.2908     8010.599    449.8849 -71.56     1.861     1.763   0.0088          3     65.16595
 3.50      7.8402  16.2736     51351.77    752.8575 -61.82     2.123     2.040   0.0016          4     75.39513
 7.90      7.3287  22.5043     165.3079   1284.2866 -47.46     0.554     0.344   0.2372          5     36.11197
 5.06      3.8817  20.8650     748.1969     72.1736 -16.48     1.297     1.175   0.0852          6      58.6864
 7.09      3.6434  20.9754     675.8309    946.9975 -11.20     1.397     0.946   0.1190          7     74.05268
 6.93      2.7658  20.6109      945.432    934.9667   5.19     1.486     1.178   0.0884          8     76.93173
 5.98      1.3488  22.2942     200.5952   1254.5757  -1.93     0.882     0.476   0.1771          9       32.711
 6.38      1.0000  22.5670     156.0229   1325.0350   0.00     0.860     0.289   0.1800         10     25.86032
 8.37     13.0423  21.5553     396.1827    858.5358  89.71     0.808     0.499   0.1487         11     54.24506
 7.51     27.2427  20.8192     780.3777    906.0284  62.58     1.235     1.115   0.1257         12     90.32621
 7.02     19.4468  22.2681     205.4819    234.2249  20.99     0.737     0.451   0.2183         13     41.29562
 8.06     24.1636  21.2197     539.6829    896.5063  -0.34     0.979     0.746   0.1435         14     71.29198
 3.50     32.3549  21.6431     365.3829   1514.8187  89.71     1.186     1.023   0.1166         15     39.21911
 6.47     27.5052  22.8522     119.9879    374.4735  45.86     0.511     0.488   0.2961         16       32.711
 5.35     33.3109  22.1705     224.8092      7.0528 -29.41     0.877     0.600   0.1915         17     39.64312
 7.27     32.5028  22.1530     228.4617    914.0272  -0.56     0.785     0.500   0.2267         18     47.68407
 4.86     69.0796  18.7268     5361.354   1463.1573 -72.90     2.832     2.480   0.0268         19     132.2421
 4.92     47.9787  22.8522     119.9832    228.2468  34.97     0.788     0.492   0.2770         20     30.59834
 5.48     49.6894  22.3460      191.252    343.8810 -30.33     0.884     0.599   0.2368         21     41.69851
 3.50     48.6995  23.2694     81.70581   1227.5970 -41.42     0.589     0.322   0.1883         22     14.16428
 8.16     50.9994  22.1662     225.7026    205.2584  89.97     0.683     0.438   0.2208         23     45.89751
 5.15     63.4169  21.2503     524.6589    888.7960 -31.82     3.064     0.817   0.1747         24     84.39343
 4.55     61.9151  21.1953     551.9377   1014.1193  49.58     1.303     1.242   0.1160         25      58.9706
 3.50     95.2679  16.6276     37065.04    916.6253 -19.93     2.422     2.058   0.0023         26     79.70686
 5.83     64.5669  21.2951     503.4515    893.1599 -16.96     2.011     0.917   0.1287         27     59.64871
 6.77     80.7907  20.3194      1236.63    541.1888 -68.13     2.157     1.464   0.1082         28     123.2102
 4.77     65.6199  21.5285     406.0731    970.7142 -47.07     1.062     0.962   0.1339         29     50.07829
 5.02     77.5636  19.9624     1718.083    183.5630  37.16     1.710     1.612   0.0535         30     84.59131
 3.55     94.6228  19.1471     3640.351    346.8269 -35.99     1.677     1.593   0.0179         31     60.09395
 5.25     93.1689  20.8584     752.7426    737.2796  14.59     1.251     1.167   0.0929         32     64.39167
 8.20     88.5198  22.5203     162.8917   1025.5172  44.87     0.510     0.489   0.2780         33     41.69851
 4.37    106.6651  20.2610     1305.001    973.7143 -40.27     2.136     1.690   0.0706         34     84.78872
 3.53    106.5207  19.5100     2606.265     47.5245 -36.46     1.582     1.560   0.0235         35     56.36126
 6.54    100.5170  21.1179     592.7146    356.8520 -25.56     1.159     1.063   0.1369         36     74.72692
 3.50     98.5842  22.0587     249.1832    326.1557 -76.66     1.017     0.724   0.1310         37     30.04697
 6.50     94.3919  22.4431     174.8929   1248.7111 -17.31     0.722     0.459   0.2355         38     37.91867
 8.16     99.6920  22.9383     110.8354    173.3035  45.27     0.553     0.345   0.3583         39     36.57201
 8.06    106.0233  21.3728     468.6893    266.4735 -26.77     1.097     0.647   0.1630         40     70.34767
 4.83    115.4942  21.6205     373.0769    924.7029  69.09     1.227     1.049   0.1641         41     56.36126
 3.66    125.6434  19.5285     2562.055    300.7448 -25.91     1.673     1.549   0.0257         42     60.64782
 5.28    110.8920  22.4972     166.3888   1457.8762 -43.13     0.852     0.658   0.2615         43     40.06263
 5.57    118.1392  21.0850     610.9572     79.4567  35.20     1.594     1.028   0.1296         44     72.91509
 5.84    111.6869  23.0873     96.61865   1000.3212  44.58     0.563     0.341   0.2978         45     26.49894
 7.47    113.3548  22.6600     143.2124    460.6852  46.69     0.578     0.332   0.2481         46       32.711
 4.38    114.4853  22.4628     171.7377     65.9743   2.48     0.781     0.499   0.1791         47     28.32856
 3.50    151.1911  17.4727     17017.69     45.4971 -66.61     2.041     1.875   0.0049         48     76.17525
 3.50    212.7002  14.0138     411600.9    966.9963  67.45     3.034     2.400   0.0003         49     96.76044
 4.55    130.1674  21.3266     489.0577     55.4243  86.66     1.181     0.973   0.1105         50     49.74331
 5.19    133.8928  21.7523     330.4296   1498.3713  36.64     1.003     0.833   0.1613         51      49.0665
 5.56    135.5188  22.4891     167.6278    735.5063 -70.98     0.956     0.414   0.2369         52     36.57201
 3.50    140.9441  21.4090     453.3094    218.5828  77.42     1.254     0.994   0.0960         53     40.06263
 4.75    158.6899  18.9989     4172.883     50.1477  10.83     2.348     2.026   0.0186         54      71.6087
 4.56    173.5511  18.9981     4175.993    556.9188  77.23     2.496     2.317   0.0292         55     112.1277
 6.34    144.6918  22.7238     135.0431   1194.3496  43.12     0.573     0.335   0.2416         56     30.04697
 4.48    152.7633  21.9000     288.3978    879.2148 -71.16     0.960     0.844   0.1585         57     42.09755
 4.57    183.9569  18.7768     5119.965   1262.7585 -84.47     2.679     2.323   0.0249         58     117.3728
 5.32    164.2391  21.3168     493.5078   1521.2362 -68.47     1.229     1.012   0.1341         59     60.92287
 5.85    166.0432  21.1023     601.2736    745.9159 -22.96     1.387     1.130   0.1338         60     74.05268
 5.41    163.4534  21.7917     318.6443   1154.1659  29.17     1.143     0.805   0.1806         61     52.99788
 3.50    185.4392  18.1961     8741.024    377.8520  44.06     1.855     1.791   0.0081         62       65.422
 6.81    169.3121  21.6703     356.3528   1159.0532  72.00     1.088     0.734   0.1922         63     63.08009
 5.72    164.5888  22.9729     107.3634    871.5212 -37.71     0.510     0.481   0.2982         64      29.4853
 6.12    173.3908  21.1849     557.2407    944.2777  23.96     1.450     1.084   0.1525         65     78.22479
 7.83    164.0000  22.2834     202.6036    757.9688   0.00     0.857     0.289   0.2214         66     41.29562
 6.57    174.5070  21.8921     290.5145    961.2061 -89.43     0.936     0.726   0.2073         67      55.4642
 3.50    237.4089  14.5917     241715.2   1389.3002 -60.89     2.351     2.198   0.0004         68      81.9817
 6.38    188.7956  21.1559     572.2956   1070.2379 -66.16     1.461     1.296   0.1140         69     60.08197
 6.71    195.9452  19.8606     1886.919   1065.9102 -53.12     1.931     1.731   0.0727         70     126.2926
 4.45    205.1032  19.2746      3237.17    985.2596 -83.24     1.782     1.741   0.0210         71     62.60808
 3.57    206.2079  18.9724     4275.886     21.3743 -77.09     1.693     1.604   0.0154         72     60.64782
 4.34    201.3544  20.2488     1319.685    185.4896  86.30     1.485     1.274   0.0508         73     61.74066
 7.05    189.0036  22.4749      169.833   1594.2350 -89.83     0.680     0.424   0.2453         74     38.35705
 4.84    191.5366  22.8971     115.1261   1097.4672  44.41     0.505     0.492   0.2182         75     23.13017
 3.50    224.9645  17.4624     17180.11   1092.9434 -75.05     1.945     1.811   0.0043         76     67.68293
 4.38    204.9958  20.7369     841.8231    353.2603  49.54     1.546     1.354   0.0841         77     65.16595
 6.59    201.9016  20.8511     757.8232    411.7759  22.68     1.623     1.125   0.1308         78     91.24699
 7.27    201.7012  21.7546     329.7285   1294.1659 -70.66     1.030     0.553   0.1856         79     56.36126
 3.95    219.1305  19.5839     2434.584   1020.2579 -10.95     2.049     1.908   0.0360         80     80.74882
 3.90    216.9382  20.5651     986.2001   1198.2729 -67.75     1.806     1.434   0.0703         81     63.87027
 4.80    209.8886  22.5115     164.2043    908.2451 -60.11     1.031     0.637   0.2677         82      40.4778
 4.71    268.0666  18.7103     5443.321    140.2715  63.45     5.455     1.957   0.0314         83     157.5146
 3.88    223.2836  20.6656     899.0413   1178.1260  36.13     1.421     1.146   0.0621         84     51.39637
 6.87    213.4799  22.6784     140.8168   1061.5094  44.65     0.512     0.487   0.2523         85       32.711
 5.89    243.6765  19.5725     2460.334    660.2729  56.74     2.330     2.070   0.0584         86     132.3685
 7.19    232.5093  19.8524     1901.216    654.0221   4.33     2.686     1.524   0.0854         87     149.4538
 3.64    243.0972  18.7264     5363.615    566.2015  29.51     1.831     1.749   0.0137         88     67.68293
 3.50    258.9529  17.9264     11205.36   1426.3889 -55.02     2.082     1.737   0.0065         89     67.18707
 4.32    236.7304  19.8190     1960.675    836.5421 -23.65     1.479     1.402   0.0349         90     63.08009
 4.43    234.4972  20.9564     687.7672    879.8083 -56.66     1.317     1.124   0.0871         91     55.16194
 3.65    247.8586  19.0118     4123.535    576.9484  28.21     1.725     1.657   0.0159         92     60.38906
 5.68    241.6002  20.4950     1052.002    368.8590 -66.00     1.584     1.499   0.0931         93     90.14092
 3.50    231.4599  23.1525     90.99048   1316.5281 -43.68     0.508     0.490   0.2391         94     20.03132
 6.87    256.0625  20.4492     1097.321     76.0572 -78.27     2.310     1.137   0.1135         95     114.6344
 3.82    286.3719  17.6165     14907.49   1328.0706 -62.90     3.890     3.155   0.0100         96     136.7177
 5.62    254.1811  19.7992     1996.718   1369.5127 -46.50     1.972     1.808   0.0592         97     108.7979
 4.51    238.3008  23.1089     94.72339   1316.6440  42.47     0.572     0.335   0.2297         98     20.03132
 7.32    243.0217  21.1985     550.3085    966.3827 -11.22     1.220     0.776   0.1439         99     72.91509
 8.17    249.4651  21.3546      476.606   1163.2465 -87.55     1.011     0.708   0.1608        100     70.58493
 4.76    251.7740  21.7467     332.1499    914.5338 -22.40     1.742     0.609   0.1659        101     50.74161
 6.79    262.3152  20.6902     878.8928    410.3904 -36.29     1.932     1.068   0.1233        102     99.82217
 4.93    296.6697  18.8001     5011.567    374.3661  32.26     5.369     2.131   0.0370        103     170.9521
 4.63    279.1549  19.3000     3162.301   1128.3959 -42.43     2.378     1.745   0.0332        104     96.58751
 5.14    265.0267  21.4175     449.7729    271.3459  62.87     1.163     0.935   0.1332        105     55.16194
 4.02    265.3846  22.5840     153.6046    721.8150  85.12     0.992     0.380   0.1828        106     25.86032
 5.52    266.8948  21.8979     288.9736    766.6589  13.69     1.008     0.750   0.1857        107     49.40607
 5.75    267.8004  22.8455     120.7239   1587.3848 -72.59     0.760     0.451   0.3164        108     35.17384
 3.50    281.3238  19.4184     2835.502    954.9826 -84.42     1.527     1.520   0.0211        109     55.16194
 3.50    286.3437  19.8623      1884.08    743.1180  68.50     1.558     1.417   0.0305        110     52.99788
 5.12    279.5313  22.9736     107.2856    885.4368 -74.77     0.499     0.496   0.2618        111     25.86032
 4.28    313.5876  18.7245     5372.602    792.2487  34.69     2.350     1.960   0.0191        112     94.48753
 6.52    298.8550  21.4345     442.7942    863.1819   4.80     1.090     0.985   0.1690        113     68.90695
 3.50    338.2658  17.3325     19364.68    595.9975  86.26     1.988     1.823   0.0039        114     68.66389
 3.50    374.0516  14.4943       264417   1262.5981 -43.64     2.343     2.212   0.0003        115     81.57281
 6.78    314.6675  20.7546     828.2679    802.7544 -18.94     1.737     1.419   0.0869        116     66.27322
 3.50    332.8217  18.3896     7314.065    788.9773  77.38     1.801     1.696   0.0092        117     62.27989
 7.92    310.6430  22.1291     233.5416   1549.2216 -16.94     0.748     0.446   0.2185        118      46.9776
 6.14    323.1217  21.0288     643.3964    832.5522  78.74     1.122     1.038   0.1130        119     66.93777
 5.08    323.1987  21.2926     504.6073    288.7291  15.01     1.259     1.110   0.1317        120     61.19668
 3.58    335.5175  20.1215     1483.815   1145.5067  -3.58     2.145     1.792   0.0525        121     71.75947
 4.64    328.8070  20.6909     878.2721    720.3349   3.49     1.256     1.173   0.0726        122      58.6864
 7.17    326.4636  22.2124     216.3009    156.8145  84.35     1.010     0.378   0.2230        123     44.41655
 5.31    334.9207  20.8900     731.1351    661.6074  26.59     1.595     1.397   0.1206        124     81.16186
 6.72    335.5432  21.2035     547.7524   1037.4845 -50.33     1.435     0.834   0.1473        125     74.27811
 4.62    361.3767  18.9640     4309.269    708.3899 -68.65     2.379     2.219   0.0275        126     108.9515
 7.08    347.7137  21.1317     585.2065   1598.6823 -79.01     1.124     0.968   0.1151        127     62.01086
 3.60    375.0627  18.2027     8687.766   1363.9340   2.09     3.088     2.411   0.0126        128     100.6561
 5.22    360.9517  20.6525      909.901    640.6298  75.08     1.416     1.325   0.0878        129     73.59975
 7.34    348.8523  22.1489     229.3115   1576.8534  47.93     0.767     0.569   0.2308        130     48.72457
 3.50    363.9760  19.8687     1872.904    504.0932 -14.26     1.535     1.436   0.0313        131     53.93597
 9.13    358.2023  21.9743     269.3278   1050.3724  72.23     0.754     0.446   0.2162        132      53.6251
 5.78    369.4063  21.2742     513.2546   1341.4336  28.52     1.585     0.990   0.1572        133     74.27811
 7.95    359.4590  22.3499     190.5583   1094.5118 -21.09     0.500     0.498   0.2376        134     41.69851
 7.06    369.6529  21.7507     330.9237    643.0444 -67.01     1.486     0.435   0.1907        135     58.11383
 8.31    363.6567  22.7746     128.8724     97.3249  45.78     0.578     0.333   0.3158        136     37.47516
 3.56    389.2385  18.7443     5275.528   1463.0966  57.58     1.796     1.631   0.0128        137     62.01086
 4.08    401.0529  18.4929     6650.043    824.7330  48.37     3.253     2.740   0.0205        138     125.2291
 4.81    377.7523  21.2558     522.0068    162.8285 -35.17     1.129     1.085   0.1135        139      54.5524
 3.50    385.9117  20.3928     1155.825    867.6343 -73.67     1.442     1.322   0.0471        140     50.07829
 6.46    383.3534  21.0000     660.6813   1277.6696  75.68     1.166     1.055   0.1217        141     74.05268
 3.50    392.8899  19.7092     2169.279   1317.5302 -48.64     1.483     1.396   0.0259        142     51.72063
 4.52    451.1505  17.8935     11550.71   1219.8578  56.07     6.476     2.500   0.0175        143     185.9427
 3.50    413.7905  17.5120     16413.49     67.1341 -60.83     1.974     1.853   0.0046        144     68.90695
 6.39    391.2280  21.7434     333.1399   1206.1643 -88.79     1.130     0.746   0.1941        145     59.53492
 3.50    417.1918  17.1692     22507.42   1307.9253  37.73     1.929     1.914   0.0033        146     68.90695
 7.10    413.1869  20.8718     743.4741    665.6929  81.38     1.328     0.991   0.1227        147     83.99628
 7.54    410.2010  21.2896     506.0061    749.6277 -26.28     1.191     0.770   0.1570        148     73.14402
 3.50    458.0979  15.7939     79883.87     12.4038 -59.41     2.124     2.082   0.0010        149     75.17306
 7.10    420.3788  21.1365      582.619    101.8098  71.35     1.223     0.902   0.1422        150     76.27698
 8.84    415.5115  22.1269     234.0079   1157.4949 -44.64     0.504     0.496   0.2079        151     44.79139
 8.79    420.2401  21.7378     334.8834    890.9982   1.82     0.800     0.551   0.1949        152     60.09395
 7.59    421.2487  22.3323     193.6777   1572.0276  -1.34     0.693     0.432   0.2361        153     42.09755
 6.96    425.6347  22.2104     216.6921    962.6557 -44.37     0.851     0.522   0.2407        154     48.03341
 3.75    439.7845  20.4201      1127.07    908.6335 -52.06     1.883     1.435   0.0608        155     63.08009
 3.50    466.2373  16.4687     42905.86   1074.6401 -82.23     2.009     1.929   0.0018        156     71.05708
 4.93    439.3988  21.6597     359.8608    814.9534 -86.52     0.990     0.950   0.1501        157     49.74331
 4.06    450.3367  20.0138     1638.551    174.3367  24.26     1.781     1.447   0.0445        158     67.18707
 3.66    449.1495  20.6680     896.9814    290.5052  -2.34     1.266     1.220   0.0569        159      46.9776
 3.75    462.7975  19.8744     1863.178    275.5684  22.46     1.563     1.439   0.0339        160     58.11383
 4.60    457.7794  21.5679     391.5918   1159.6694  30.96     1.323     1.096   0.1596        161     57.53558
 4.24    464.8949  21.0184     649.5789   1190.3889  89.16     1.284     1.008   0.0826        162     49.40607
 5.44    462.5362  21.4536     435.0908   1091.4558  46.22     1.073     0.828   0.1315        163     52.68147
 7.04    458.3414  22.8775     117.2188    977.3062 -46.69     0.569     0.338   0.2835        164     30.59834
 3.50    488.4671  18.3200     7798.379    573.8985  65.18     1.749     1.715   0.0086        165     61.46927
 3.50    478.8458  20.6316     927.6228   1017.2892 -36.08     1.346     1.227   0.0542        166     46.26034
 6.16    474.5374  21.7030     345.7806   1137.3838  51.60     1.144     0.789   0.1879        167     59.81509
 7.74    473.0392  22.1358     232.0992    250.0121 -88.81     0.629     0.610   0.2247        168     48.03341
 8.05    480.7053  21.9648     271.6907   1570.9915 -56.06     1.184     0.443   0.2380        169     59.53492
