#   1 KRON_RADIUS            Kron apertures in units of A or B                         
#   2 Y_IMAGE                Object position along y                                    [pixel]
#   3 MAG_BEST               Best of MAG_AUTO and MAG_ISOCOR                            [mag]
#   4 FLUX_BEST              Best of FLUX_AUTO and FLUX_ISOCOR                          [count]
#   5 X_IMAGE                Object position along x                                    [pixel]
#   6 THETA_IMAGE            Position angle (CCW/x)                                     [deg]
#   7 A_IMAGE                Profile RMS along major axis                               [pixel]
#   8 B_IMAGE                Profile RMS along minor axis                               [pixel]
#   9 MAGERR_BEST            RMS error for MAG_BEST                                     [mag]
#  10 NUMBER                 Running object number                                     
#  11 FLUXERR_BEST           RMS error for BEST flux                                    [count]
 3.87     54.0606  20.0695     1556.649     63.4906  10.24     5.079     4.642   0.1293          1     185.4044
 0.00     17.6089  99.0000    -136.8267    984.8857 -88.11     4.179     1.842  99.0000          2     96.19543
 0.00     18.7909  99.0000    -80.34534     91.0583 -77.68     1.665     1.590  99.0000          3     56.55421
 0.00     15.4372  99.0000    -3.269043   1445.5699 -58.56     1.765     1.663  99.0000          4     59.75788
 0.00      7.7679  99.0000     -65.0011   1469.4524 -68.75     0.745     0.449  99.0000          5     49.21456
 0.00      4.5160  99.0000    -102.2406    145.3089  44.41     1.257     0.896  99.0000          6     51.97637
 7.14     10.4944  25.8551     7.550049   1183.4982  44.88     0.503     0.497   5.3168          7     36.96346
 3.50     60.5870  22.8356     121.8295   1078.2454  78.89     2.101     1.994   0.6283          8     70.48656
 7.81     14.3362  23.5997       60.271    839.6812  45.80     0.572     0.336   0.6190          9      34.3509
 0.00     25.5086  99.0000     -12.8031    367.0246 -44.58     1.386     1.224  99.0000         10     47.28382
 3.96     17.9751  26.8377     3.054321    384.0876  -6.21     1.065     0.750  11.8881         11     33.43471
 3.50    182.7325  23.2944     79.84338   1107.3342 -33.02     5.842     5.048   2.5557         12     187.8999
 0.00     24.5880  99.0000    -101.6649    383.1618  87.82     1.000     0.715  99.0000         13      66.1692
 7.77     35.5278  22.1925     220.2909   1110.5074  83.69     1.018     0.640   0.3059         14      62.0522
 0.00     34.3293  99.0000    -175.9263    326.4466 -55.26     1.064     0.824  99.0000         15     64.26465
 0.00     38.8936  99.0000    -71.06433   1521.2977  57.82     1.154     0.680  99.0000         16     49.84152
 5.84     39.8461  23.0250      102.333   1170.4801  -0.97     0.941     0.732   0.5053         17     47.61105
 0.00     45.8528  99.0000    -89.80005    440.1219 -39.18     1.403     1.002  99.0000         18     65.46149
 0.00     43.2799  99.0000     -78.9928    915.3459 -44.82     1.174     0.700  99.0000         19     30.52157
 3.50     80.9598  21.2759     512.4503    537.4124 -67.89     2.020     1.918   0.1446         20     68.24831
 0.00     40.5038  99.0000    -3.557129   1225.9862 -32.64     0.782     0.319  99.0000         21     31.52255
 6.55     51.1657  25.0392     16.00696    265.9854  36.65     0.939     0.465   2.9528         22     43.52224
 0.00     51.0299  99.0000    -52.64343   1435.2108 -33.32     0.788     0.497  99.0000         23     38.60708
 6.80     49.3377  24.2422     33.35303   1233.6754  45.58     0.575     0.334   0.9428         24     28.95531
 0.00     75.9613  99.0000    -83.30835    127.6706  65.46     1.365     1.260  99.0000         25     44.57961
 0.00     82.8388  99.0000    -152.7251    421.4473 -51.35     1.212     0.808  99.0000         26       56.279
 0.00     91.5345  99.0000    -208.0653    376.7948 -74.03     1.886     1.573  99.0000         27     86.86592
 3.50    122.5929  24.8958     18.26794    788.9210 -57.93     2.107     1.961   4.1640         28     70.04463
 0.00     97.3432  99.0000     -174.432     55.9943  -9.78     1.501     1.385  99.0000         29     51.97637
 0.00     92.9185  99.0000    -30.93164    495.8493  75.14     1.341     0.684  99.0000         30     57.91062
 0.00     98.7693  99.0000    -282.6975    452.5781 -24.86     1.703     0.981  99.0000         31     77.61527
 4.43     96.5883  25.8824     7.363037   1075.8324  21.36     0.766     0.435   3.7664         32     25.53618
 0.00    114.3489  99.0000    -22.86047    270.3333 -45.61     0.584     0.329  99.0000         33      35.6811
 7.06    117.8673  22.7737     128.9745     66.8318  46.85     0.748     0.562   0.3812         34     45.27081
 0.00    118.7044  99.0000     -51.1366    990.6282 -41.71     0.576     0.332  99.0000         35     26.13712
 0.00    118.5058  99.0000    -39.85181    154.4909  45.33     0.502     0.498  99.0000         36     40.18352
 4.24    235.9001  20.7484     832.9908    403.1562 -56.45     6.429     5.300   0.3186         37     244.3633
 3.50    194.4204  24.4258     28.16394    317.8754 -62.51     2.391     2.159   3.0159         38     78.21309
 3.50    163.1395  23.2196     85.53809   1468.1359 -60.49     1.999     1.918   0.8519         39      67.1012
 5.04    132.4922  23.8768     46.69763    418.0420   0.54     0.804     0.500   0.7331         40     31.52255
 0.00    171.1363  99.0000    -8.242188    877.1224 -68.32     1.766     1.710  99.0000         41     59.75788
 5.36    147.2958  24.1223     37.24756    353.1507 -30.05     0.879     0.605   1.1256         42     38.60708
 0.00    152.5081  99.0000    -7.102295   1279.9960  -1.46     0.803     0.500  99.0000         43     41.70041
 0.00    172.3745  99.0000    -40.81787    325.0115 -64.12     1.467     1.346  99.0000         44      67.1012
 0.00    165.8674  99.0000    -38.34778   1445.5350  -0.27     1.320     1.134  99.0000         45     43.52224
 4.17    167.5935  23.6315     58.53503    104.3067 -28.86     1.173     1.010   0.8141         46     43.87753
 0.00    170.4302  99.0000    -8.870239   1368.2188 -47.27     1.080     0.717  99.0000         47     44.22997
 5.71    169.4399  25.8041     7.913696    651.5150 -35.83     0.503     0.493   3.8993         48     28.41404
 0.00    181.2359  99.0000    -60.15369    574.8821  23.27     1.275     0.773  99.0000         49     43.87753
 0.00    193.3881  99.0000    -32.07446   1350.3933 -35.33     1.357     1.132  99.0000         50      53.1578
 0.00    186.9876  99.0000    -49.43848   1354.0366 -74.11     0.796     0.783  99.0000         51     65.69823
 3.72    211.5532  23.7311     53.40198    827.4822  -7.29     3.936     1.949   2.0555         52     101.0751
 3.50    207.5034  24.3337     30.65698    548.9205 -81.30     1.549     1.369   1.7434         53     49.21456
 7.58    196.0324  24.8820      18.5011    267.5382  56.83     0.765     0.324   2.2662         54     38.60708
 4.87    229.8139  99.0000    -19.66553    414.8996 -19.48     1.967     1.652  99.0000         55     41.32641
 0.00    211.4506  99.0000      -3.3573    684.4574 -82.33     1.680     1.042  99.0000         56     46.95431
 4.07    209.4233  21.4821     423.7924    349.7025  43.13     1.598     1.217   0.1470         57      57.3719
 0.00    204.3587  99.0000    -19.95276    250.6058 -42.34     0.981     0.848  99.0000         58      32.0113
 0.00    212.9739  99.0000    -77.65125   1305.9009  53.84     1.403     1.346  99.0000         59     46.28826
 4.51    231.0750  19.0556     3960.441    562.2184  -9.41     3.381     2.852   0.0379         60     138.0799
 3.50    204.4280  25.7749     8.128906   1498.4841 -36.27     0.505     0.489   2.5789         61     19.30354
 0.00    205.7527  99.0000    -3.143555    937.2287 -19.28     0.855     0.346  99.0000         62      37.7942
 0.00    224.5217  99.0000    -125.2638   1225.8657 -53.97     1.548     1.416  99.0000         63     52.27423
 0.00    260.5782  99.0000    -157.4822    997.2145 -60.88     2.174     2.033  99.0000         64     72.22723
 3.50    266.7132  22.9972     104.9825     67.3777 -78.85     2.116     1.998   0.7292         65     70.48656
 5.20    223.1785  22.5387     160.1455    345.6050 -22.38     1.579     1.463   0.5250         66     77.41497
 0.00    223.2261  99.0000     -51.2168    774.7524 -19.32     1.202     1.068  99.0000         67     39.40318
 0.00    219.2476  99.0000    -95.67346    740.7268 -18.84     0.845     0.353  99.0000         68     39.00716
 4.32    244.2684  23.0482     100.1691    112.8208  77.16     2.123     1.544   0.8328         69     76.81094
 4.49    256.2215  22.8205     123.5328    612.7909 -37.89     2.503     1.802   0.8299         70     94.40332
 6.09    239.9036  19.7262     2135.652    838.4949 -37.93     1.369     1.007   0.0361         71     70.92573
 5.00    240.0472  27.3834     1.847778   1478.8186 -53.93     0.940     0.464  19.0970         72      32.4927
 0.00    313.2080  99.0000    -105.6141    439.2092 -58.52     2.401     2.209  99.0000         73     79.59053
 6.70    252.6677  19.6960     2195.838   1372.6152 -44.30     1.226     0.877   0.0339         74     68.47543
 6.94    251.4614  26.1591     5.706299    107.4959 -45.23     1.084     0.836  12.4584         75     65.46149
 5.43    254.3471  23.2041     86.77002   1352.5072   0.00     0.868     0.476   0.4411         76     35.24328
 3.50    288.3375  22.6255     147.8444   1486.2755 -55.67     1.869     1.782   0.4649         77     63.29089
 3.50    282.7324  23.0526     99.76343   1522.1934 -43.42     1.561     1.489   0.5787         78      53.1578
 0.00    271.2609  99.0000     -49.4696   1273.5472 -11.08     1.161     0.926  99.0000         79      71.3622
 3.57    290.6129  24.3119     31.27917    514.7311 -61.03     1.859     1.552   2.0927         80     60.27528
 0.00    319.4862  99.0000    -77.79187    905.2509 -61.70     2.069     1.942  99.0000         81     69.15231
 3.50    303.9936  22.3940     182.9713    201.5941 -73.78     1.829     1.708   0.3668         82     61.80148
 5.16    297.8686  21.6133      375.576   1413.5083 -39.26     2.150     1.549   0.2687         83     92.91134
 3.56    294.7549  20.1158     1491.748   1327.3584 -23.02     1.400     1.322   0.0351         84     48.25885
 3.50    352.2489  21.9511     275.1359   1345.7200 -52.96     2.313     2.158   0.3032         85     76.81094
 0.00    352.2323  99.0000    -75.89026    890.5778 -52.57     2.350     2.174  99.0000         86     78.21309
 0.00    294.2966  99.0000    -19.41235   1475.4912 -66.12     1.171     0.977  99.0000         87      64.9854
 3.50    302.8696  25.9641     6.829346    563.5292  64.37     1.321     1.261   6.9209         88     43.52224
 0.00    322.8518  99.0000    -26.80066    697.1324 -67.39     1.711     1.657  99.0000         89     57.64189
 6.40    309.7060  23.2534     82.91443     85.4069 -81.45     1.983     0.885   1.1045         90     84.32649
 0.00    322.1810  99.0000    -73.38025    641.0074 -76.22     2.195     1.269  99.0000         91     82.08734
 4.49    328.1170  20.3131     1243.804    595.2689 -50.18     1.627     1.559   0.0625         92     71.57944
 0.00    317.8036  99.0000    -19.68445    226.3809 -71.76     0.752     0.447  99.0000         93     30.00857
 0.00    347.0935  99.0000     -7.80957    866.9109 -38.15     1.821     1.669  99.0000         94     63.53572
 5.35    332.8581  23.5384     63.77173     93.4377  -7.83     1.068     0.836   0.8645         95     50.76745
 4.20    330.3324  26.0186     6.494873   1545.6162  -6.15     0.994     0.631   5.5124         96     32.96707
 0.00    335.7877  99.0000    -42.40833   1440.3218 -48.97     0.986     0.855  99.0000         97     40.56806
 3.79    356.5633  22.8819     116.7437    431.6613 -76.63     1.957     1.739   0.6391         98      68.7018
 0.00    350.8575  99.0000    -60.16553     54.4747 -39.25     1.290     1.224  99.0000         99     42.80281
 5.14    348.6108  22.8653     118.5466     42.2829 -59.05     0.983     0.545   0.3462        100      37.7942
 0.00    368.9762  99.0000    -84.22107    760.8817 -55.02     1.739     1.636  99.0000        101      57.3719
 7.08    351.1112  25.9301     7.046021    920.2661 -17.72     0.939     0.676   8.5457        102     55.44519
 3.50    362.0320  22.5139     163.8427   1500.1698  10.15     1.428     1.398   0.3199        103     48.25885
 3.61    368.2886  24.8630     18.82727    442.6443 -44.79     1.606     1.455   3.1494        104     54.59865
 6.16    353.6877  23.9170     44.99731    350.3493  43.36     0.575     0.334   0.6589        105     27.29933
 0.00    396.0084  99.0000     -76.5282    231.2756 -59.51     2.003     1.932  99.0000        106      67.1012
 0.00    360.5867  99.0000    -121.7885    533.2850  21.62     1.031     0.915  99.0000        107     60.53232
 3.53    361.4968  25.5318     10.16882   1033.7421 -34.22     1.094     0.910   3.6200        108      33.8959
 5.96    363.8832  24.6305     23.32336   1415.6968 -78.20     1.038     0.416   1.7977        109     38.60708
 3.50    373.7502  23.9749     42.66162    992.1270 -58.62     1.191     1.021   0.9516        110     37.38114
 4.95    373.9765  25.5933     9.609131   1083.8434 -45.30     1.443     1.000   6.6052        111     58.44437
 0.00    369.9420  99.0000    -28.90991    210.5096  87.58     0.786     0.499  99.0000        112      37.7942
 0.00    371.1455  99.0000    -48.74292     71.4292 -16.36     1.204     0.716  99.0000        113     60.78827
 0.00    376.9810  99.0000    -197.0422    753.9877  38.43     1.723     0.867  99.0000        114     79.78536
 3.50    397.8752  21.7451     332.6401   1461.0035 -57.54     1.678     1.607   0.1837        115       56.279
 5.17    376.6144  25.3776     11.72083     86.3840  23.01     1.364     0.457   3.7232        116     40.18352
 3.50    398.9585  22.9610     108.5455    354.4046 -56.82     1.759     1.641   0.5927        117     59.23597
 5.97    380.9103  23.8133     49.50793    125.6369 -22.70     0.902     0.682   1.0227        118     46.62247
 3.64    394.5150  23.2085     86.41663   1088.6681 -16.65     1.553     1.372   0.6569        119     52.27423
 0.00    420.3994  99.0000    -23.49255    433.1460 -57.35     1.997     1.878  99.0000        120     66.86942
 3.50    416.4439  23.2958     79.73767    837.1794 -67.30     1.895     1.794   0.8720        121      64.0226
 5.36    390.0044  26.7062     3.447632   1195.2917  85.80     0.739     0.674  11.5104        122     36.54101
 6.62    390.2305  24.3998     28.84448    260.4030  71.18     0.744     0.452   1.4074        123     37.38114
 4.81    397.2771  24.6584      22.7323    977.5050 -21.24     1.103     0.780   2.1130        124     44.22997
 0.00    397.9344  99.0000    -76.92041    626.5070  15.77     1.528     0.795  99.0000        125      66.1692
 3.50    440.8153  24.4451      27.6676    305.5588 -50.74     1.189     1.082   1.5466        126     39.40318
 6.01    407.6977  24.0573     39.54431    281.6329 -82.40     1.007     0.467   1.1452        127     41.70041
 7.28    415.6719  24.1188     37.36743      2.5615  28.95     1.141     0.754   1.5785        128     54.31354
 7.80    404.5128  24.3157     31.16943    526.8889  -1.99     0.784     0.499   1.6814        129     48.25885
 0.00    425.0124  99.0000    -5.195435    926.1458 -46.76     1.635     1.521  99.0000        130     54.59865
 0.00    461.8470  99.0000    -6.610474    807.3679 -54.81     2.148     2.048  99.0000        131     72.44187
 7.26    413.7131  23.8477      47.9624   1562.2982 -60.78     1.155     0.451   1.1701        132     51.67679
 3.50    438.7642  23.5411     63.61487    251.9271 -54.88     1.813     1.728   1.0464        133     61.29697
 0.00    421.8596  99.0000    -53.36462    158.7295  50.88     1.660     1.444  99.0000        134     74.96967
 5.46    412.6987  26.0683     6.204224    199.3263  43.64     0.560     0.342   4.2517        135     24.28975
 9.12    415.3152  23.7448      52.7334    558.6304  42.89     0.584     0.328   0.7951        136     38.60708
 6.12    419.5396  25.2884     12.72424   1203.5216  13.28     1.222     0.608   4.4868        137      52.5704
 3.50    433.6358  23.7267     53.61987   1421.9036 -17.73     1.428     1.337   0.9709        138     47.93604
 6.05    427.7109  22.6480     144.8118   1179.3110  20.69     1.296     0.986   0.5067        139     67.56239
 5.64    420.6244  26.4085     4.535034   1579.7715  17.88     0.757     0.446   7.7810        140      32.4927
 7.11    424.8950  22.5265     161.9497   1063.8502 -46.61     0.815     0.670   0.3525        141      52.5704
 0.00    431.8513  99.0000    -74.84375    717.7710 -64.55     0.930     0.895  99.0000        142      62.3019
 0.00    434.9498  99.0000    -56.36829    151.0015  25.47     1.154     0.980  99.0000        143     51.97637
 0.00    468.5386  99.0000    -451.7295    850.1890  22.22     7.442     1.903  99.0000        144     165.8682
 3.51    451.1122  20.2767      1286.24     21.1382 -39.37     1.703     1.572   0.0480        145     56.82808
 5.35    446.1109  25.6608     9.030029    122.1262 -32.70     1.653     1.204   9.0659        146     75.38273
 7.20    434.6680  24.4914     26.51099    353.3013  46.61     0.562     0.341   1.2293        147     30.00857
 3.57    448.0235  24.5865     24.28857    884.3464  -1.26     2.252     1.419   2.8189        148     63.04509
 0.00    458.6750  99.0000    -8.199829     34.3958 -60.50     1.679     1.537  99.0000        149     55.72452
 0.00    444.1706  99.0000    -10.29333    654.5854 -70.39     0.757     0.448  99.0000        150      31.0261
 0.00    464.5988  99.0000    -38.74731    468.4730 -73.92     1.596     1.441  99.0000        151      52.5704
 4.28    453.8176  23.7410     52.91724   1533.1399  37.42     0.790     0.678   0.6469        152     31.52255
 5.10    461.9113  21.3225     490.9261   1096.1396  54.35     1.156     1.063   0.1239        153     56.00245
 3.50    472.0582  22.2302     212.7765    254.1115 -72.83     1.524     1.321   0.2496        154     48.89806
 0.00    462.3787  99.0000    -51.93701    724.6503 -28.34     1.116     0.728  99.0000        155     45.61248
 7.22    457.7005  20.3867     1162.354   1223.6603 -42.96     0.565     0.339   0.0285        156     30.52157
 0.00    472.9619  99.0000    -199.8442    734.7728 -38.58     1.496     1.347  99.0000        157     48.89806
 0.00    478.7596  99.0000    -91.14978    922.8173 -35.41     1.544     1.447  99.0000        158     51.67679
 0.00    478.7934  99.0000    -78.54382   1276.8331 -53.38     1.380     1.256  99.0000        159     50.76745
 4.44    476.5136  24.7152     21.57397   1168.0371 -89.76     0.813     0.676   1.6356        160      32.4927
 0.00    533.7934  99.0000    -273.0167    518.6295  28.40     4.107     3.566  99.0000        161     161.0236
 3.50    484.9557  22.4546     173.0459   1070.4277 -66.11     1.365     1.226   0.2798        162     44.57961
 0.00    473.4778  99.0000    -32.62988    781.5225  45.02     0.505     0.494  99.0000        163     40.18352
 4.94    496.9649  24.0937     38.24109     82.5904  56.28     2.338     2.068   3.0522        164     107.4776
 5.19    489.7222  23.3013      79.3407    839.5610  85.43     1.974     0.945   0.9588        165     70.04463
 0.00    496.5237  99.0000    -65.15845   1186.6776 -15.91     2.961     1.842  99.0000        166     94.40332
 0.00    481.6935  99.0000     -15.5376   1309.1306  71.28     0.894     0.694  99.0000        167     36.54101
 0.00    479.8593  99.0000    -45.66382    682.6145  17.68     1.030     0.720  99.0000        168     30.52157
 5.99    481.6788  23.7120     54.35229   1520.4889  -0.10     0.921     0.467   0.7714        169     38.60708
