#   1 KRON_RADIUS            Kron apertures in units of A or B                         
#   2 Y_IMAGE                Object position along y                                    [pixel]
#   3 MAG_BEST               Best of MAG_AUTO and MAG_ISOCOR                            [mag]
#   4 FLUX_BEST              Best of FLUX_AUTO and FLUX_ISOCOR                          [count]
#   5 X_IMAGE                Object position along x                                    [pixel]
#   6 THETA_IMAGE            Position angle (CCW/x)                                     [deg]
#   7 A_IMAGE                Profile RMS along major axis                               [pixel]
#   8 B_IMAGE                Profile RMS along minor axis                               [pixel]
#   9 MAGERR_BEST            RMS error for MAG_BEST                                     [mag]
#  10 NUMBER                 Running object number                                     
#  11 FLUXERR_BEST           RMS error for BEST flux                                    [count]
 3.87     54.0606  21.1261     588.2468     63.4906  10.24     5.079     4.642   0.5992          1     324.5414
 0.00     17.6089  99.0000     -326.494    984.8857 -88.11     4.179     1.842  99.0000          2     168.3854
 3.50     18.7909  25.4404     11.06189     91.0583 -77.68     1.665     1.590   9.7189          3     98.99538
 3.50     15.4372  23.0053     104.2024   1445.5699 -58.56     1.765     1.663   1.0902          4     104.6033
 8.71      7.7679  23.2099     86.30432   1469.4524 -68.75     0.745     0.449   1.0840          5     86.14769
 0.00      4.5160  99.0000     -228.819    145.3089  44.41     1.257     0.896  99.0000          6      90.9821
 7.14     10.4944  24.5289     25.61133   1183.4982  44.88     0.503     0.497   2.7436          7     64.70274
 3.50     60.5870  22.6670     142.3037   1078.2454  78.89     2.101     1.994   0.9416          8     123.3833
 0.00     14.3362  99.0000     -51.1344    839.6812  45.80     0.572     0.336  99.0000          9     60.12957
 3.71     25.5086  24.5609     24.86694    367.0246 -44.58     1.386     1.224   3.6147         10     82.76802
 3.96     17.9751  23.1367     92.32593    384.0876  -6.21     1.065     0.750   0.6884         11     58.52583
 0.00    182.7325  99.0000    -1441.943   1107.3342 -33.02     5.842     5.048  99.0000         12     328.9096
 7.95     24.5880  21.9740     269.3915    383.1618  87.82     1.000     0.715   0.4669         13      115.826
 0.00     35.5278  99.0000    -72.19116   1110.5074  83.69     1.018     0.640  99.0000         14     108.6193
 6.92     34.3293  22.1009     239.6766    326.4466 -55.26     1.064     0.824   0.5097         15     112.4921
 5.72     38.8936  23.0850     96.82605   1521.2977  57.82     1.154     0.680   0.9785         16     87.24516
 0.00     39.8461  99.0000    -2.401123   1170.4801  -0.97     0.941     0.732  99.0000         17     83.34081
 5.61     45.8528  23.6206     59.12268    440.1219 -39.18     1.403     1.002   2.1048         18     114.5871
 0.00     43.2799  99.0000    -40.90723    915.3459 -44.82     1.174     0.700  99.0000         19     53.42653
 0.00     80.9598  99.0000    -90.53003    537.4124 -67.89     2.020     1.918  99.0000         20     119.4653
 6.79     40.5038  23.3521     75.71045   1225.9862 -32.64     0.782     0.319   0.7915         21     55.17868
 6.55     51.1657  23.7988     50.17505    265.9854  36.65     0.939     0.465   1.6489         22     76.18356
 6.43     51.0299  29.3261    0.3087158   1435.2108 -33.32     0.788     0.497 237.7321         23      67.5798
 6.80     49.3377  23.8058     49.84998   1233.6754  45.58     0.575     0.334   1.1042         24     50.68485
 3.50     75.9613  23.5160     65.10461    127.6706  65.46     1.365     1.260   1.3017         25     78.03444
 5.75     82.8388  22.6134     149.4949    421.4473 -51.35     1.212     0.808   0.7156         26     98.51365
 5.12     91.5345  21.9294     280.6946    376.7948 -74.03     1.886     1.573   0.5883         27     152.0546
 3.50    122.5929  24.0812     38.68396    788.9210 -57.93     2.107     1.961   3.4421         28     122.6097
 3.64     97.3432  23.1655     89.90747     55.9943  -9.78     1.501     1.385   1.0990         29      90.9821
 0.00     92.9185  99.0000    -44.59277    495.8493  75.14     1.341     0.684  99.0000         30     101.3697
 0.00     98.7693  99.0000    -87.43945    452.5781 -24.86     1.703     0.981  99.0000         31     135.8617
 0.00     96.5883  99.0000    -52.11523   1075.8324  21.36     0.766     0.435  99.0000         32     44.69984
 8.01    114.3489  23.2766     81.16284    270.3333 -45.61     0.584     0.329   0.8357         33     62.45803
 7.06    117.8673  21.9794     268.0734     66.8318  46.85     0.748     0.562   0.3210         34     79.24435
 6.06    118.7044  23.4698     67.93591    990.6282 -41.71     0.576     0.332   0.7314         35     45.75174
 8.28    118.5058  23.0783     97.43005    154.4909  45.33     0.502     0.498   0.7840         36     70.33929
 4.24    235.9001  20.5034     1043.821    403.1562 -56.45     6.429     5.300   0.4450         37      427.746
 3.50    194.4204  23.6511     57.48718    317.8754 -62.51     2.391     2.159   2.5864         38     136.9082
 3.50    163.1395  22.0290     256.0839   1468.1359 -60.49     1.999     1.918   0.4981         39     117.4574
 0.00    132.4922  99.0000    -3.304932    418.0420   0.54     0.804     0.500  99.0000         40     55.17868
 3.50    171.1363  22.9076     114.0178    877.1224 -68.32     1.766     1.710   0.9963         41     104.6033
 0.00    147.2958  99.0000     -14.5575    353.1507 -30.05     0.879     0.605  99.0000         42      67.5798
 0.00    152.5081  99.0000    -53.10059   1279.9960  -1.46     0.803     0.500  99.0000         43     72.99453
 4.82    172.3745  24.9928     16.70605    325.0115 -64.12     1.467     1.346   7.6355         44     117.4574
 0.00    165.8674  99.0000    -82.04736   1445.5350  -0.27     1.320     1.134  99.0000         45     76.18356
 0.00    167.5935  99.0000    -50.64771    104.3067 -28.86     1.173     1.010  99.0000         46     76.80547
 0.00    170.4302  99.0000    -64.29492   1368.2188 -47.27     1.080     0.717  99.0000         47     77.42239
 5.71    169.4399  24.8924     18.32422    651.5150 -35.83     0.503     0.493   2.9477         48     49.73739
 4.46    181.2359  24.5241     25.72583    574.8821  23.27     1.275     0.773   3.2423         49     76.80547
 0.00    193.3881  99.0000    -86.67688   1350.3933 -35.33     1.357     1.132  99.0000         50     93.05014
 8.45    186.9876  23.2932     79.92969   1354.0366 -74.11     0.796     0.783   1.5625         51     115.0016
 3.72    211.5532  21.9146     284.5385    827.4822  -7.29     3.936     1.949   0.6753         52     176.9271
 3.50    207.5034  23.1115     94.49585    548.9205 -81.30     1.549     1.369   0.9901         53     86.14769
 0.00    196.0324  99.0000     -29.4729    267.5382  56.83     0.765     0.324  99.0000         54      67.5798
 0.00    229.8139  20.5483     1001.557    414.8996 -19.48     1.967     1.652   0.1552         55     143.0953
 3.50    211.4506  23.1970     87.33972    684.4574 -82.33     1.680     1.042   1.0220         56     82.19123
 4.07    209.4233  24.1461     36.43823    349.7025  43.13     1.598     1.217   2.9931         57     100.4267
 3.50    204.3587  26.0688     6.201416    250.6058 -42.34     0.981     0.848   9.8128         58     56.03421
 0.00    212.9739  99.0000    -61.91284   1305.9009  53.84     1.403     1.346  99.0000         59     81.02534
 4.51    231.0750  21.2944     503.7965    562.2184  -9.41     3.381     2.852   0.5210         60     241.7021
 0.00    204.4280  99.0000    -4.179199   1498.4841 -36.27     0.505     0.489  99.0000         61      33.7899
 0.00    205.7527  99.0000    -21.95166    937.2287 -19.28     0.855     0.346  99.0000         62     66.15691
 0.00    224.5217  99.0000    -170.8075   1225.8657 -53.97     1.548     1.416  99.0000         63     91.50349
 3.50    260.5782  22.6204     148.5349    997.2145 -60.88     2.174     2.033   0.9244         64     126.4302
 3.50    266.7132  23.4764     67.52136     67.3777 -78.85     2.116     1.998   1.9845         65     123.3833
 5.20    223.1785  23.2680     81.81055    345.6050 -22.38     1.579     1.463   1.7989         66     135.5111
 3.50    223.2261  23.5993     60.29602    774.7524 -19.32     1.202     1.068   1.2423         67     68.97335
 7.24    219.2476  28.0756    0.9766846    740.7268 -18.84     0.845     0.353  75.9224         68     68.28014
 4.32    244.2684  22.2028     218.2035    112.8208  77.16     2.123     1.544   0.6692         69     134.4538
 0.00    256.2215  99.0000    -187.5085    612.7909 -37.89     2.503     1.802  99.0000         70     165.2484
 6.09    239.9036  21.3931     460.0148    838.4949 -37.93     1.369     1.007   0.2931         71      124.152
 0.00    240.0472  99.0000    -68.25269   1478.8186 -53.93     0.940     0.464  99.0000         72     56.87688
 3.50    313.2080  22.6052     150.6281    439.2092 -58.52     2.401     2.209   1.0045         73     139.3193
 6.70    252.6677  22.2247      213.849   1372.6152 -44.30     1.226     0.877   0.6087         74     119.8629
 0.00    251.4614  99.0000    -78.13293    107.4959 -45.23     1.084     0.836  99.0000         75     114.5871
 5.43    254.3471  24.4728     26.97083   1352.5072   0.00     0.868     0.476   2.4841         76     61.69164
 0.00    288.3375  99.0000    -78.88989   1486.2755 -55.67     1.869     1.782  99.0000         77     110.7876
 0.00    282.7324  99.0000    -188.1851   1522.1934 -43.42     1.561     1.489  99.0000         78     93.05014
 0.00    271.2609  99.0000     -41.8999   1273.5472 -11.08     1.161     0.926  99.0000         79     124.9161
 0.00    290.6129  99.0000    -231.8876    514.7311 -61.03     1.859     1.552  99.0000         80     105.5089
 0.00    319.4862  99.0000    -354.2749    905.2509 -61.70     2.069     1.942  99.0000         81     121.0477
 0.00    303.9936  99.0000    -165.5234    201.5941 -73.78     1.829     1.708  99.0000         82     108.1805
 5.16    297.8686  21.9324      279.915   1413.5083 -39.26     2.150     1.549   0.6310         83     162.6368
 3.56    294.7549  21.8096      313.452   1327.3584 -23.02     1.400     1.322   0.2927         84     84.47475
 3.50    352.2489  23.7594     52.02991   1345.7200 -52.96     2.313     2.158   2.8064         85     134.4538
 0.00    352.2323  99.0000     -187.384    890.5778 -52.57     2.350     2.174  99.0000         86     136.9082
 0.00    294.2966  99.0000    -54.70898   1475.4912 -66.12     1.171     0.977  99.0000         87     113.7538
 0.00    302.8696  99.0000    -192.1943    563.5292  64.37     1.321     1.261  99.0000         88     76.18356
 3.50    322.8518  22.7780     128.4713    697.1324 -67.39     1.711     1.657   0.8529         89     100.8993
 6.40    309.7060  23.3235     77.72852     85.4069 -81.45     1.983     0.885   2.0624         90     147.6094
 5.00    322.1810  22.1003     239.8251    641.0074 -76.22     2.195     1.269   0.6507         91     143.6899
 4.49    328.1170  22.9983      104.875    595.2689 -50.18     1.627     1.559   1.2975         92     125.2963
 5.36    317.8036  24.3242     30.92578    226.3809 -71.76     0.752     0.447   1.8446         93     52.52854
 0.00    347.0935  99.0000    -146.6569    866.9109 -38.15     1.821     1.669  99.0000         94     111.2162
 5.35    332.8581  24.6089     23.79272     93.4377  -7.83     1.068     0.836   4.0562         95     88.86594
 0.00    330.3324  99.0000    -90.68689   1545.6162  -6.15     0.994     0.631  99.0000         96     57.70724
 0.00    335.7877  99.0000    -145.8422   1440.3218 -48.97     0.986     0.855  99.0000         97     71.01241
 0.00    356.5633  99.0000    -32.93237    431.6613 -76.63     1.957     1.739  99.0000         98     120.2591
 0.00    350.8575  99.0000    -41.02576     54.4747 -39.25     1.290     1.224  99.0000         99     74.92424
 5.14    348.6108  23.5141     65.21887     42.2829 -59.05     0.983     0.545   1.1016        100     66.15691
 3.50    368.9762  22.7846     127.6908    760.8817 -55.02     1.739     1.636   0.8541        101     100.4267
 0.00    351.1112  99.0000    -214.0204    920.2661 -17.72     0.939     0.676  99.0000        102     97.05411
 0.00    362.0320  99.0000    -186.7596   1500.1698  10.15     1.428     1.398  99.0000        103     84.47475
 0.00    368.2886  99.0000    -10.92261    442.6443 -44.79     1.606     1.455  99.0000        104     95.57228
 6.16    353.6877  23.5462     63.31909    350.3493  43.36     0.575     0.334   0.8196        105     47.78614
 0.00    396.0084  99.0000    -87.23865    231.2756 -59.51     2.003     1.932  99.0000        106     117.4574
 6.26    360.5867  21.8237     309.4006    533.2850  21.62     1.031     0.915   0.3719        107     105.9589
 3.53    361.4968  24.9116     18.00317   1033.7421 -34.22     1.094     0.910   3.5791        108     59.33312
 0.00    363.8832  99.0000    -24.66382   1415.6968 -78.20     1.038     0.416  99.0000        109      67.5798
 3.50    373.7502  24.1811     35.28149    992.1270 -58.62     1.191     1.021   2.0141        110     65.43387
 4.95    373.9765  28.2009    0.8702393   1083.8434 -45.30     1.443     1.000 127.6685        111      102.304
 0.00    369.9420  99.0000     -21.4303    210.5096  87.58     0.786     0.499  99.0000        112     66.15691
 6.59    371.1455  25.2547     13.12585     71.4292 -16.36     1.204     0.716   8.8038        113     106.4069
 6.58    376.9810  21.9842       266.89    753.9877  38.43     1.723     0.867   0.5683        114     139.6604
 0.00    397.8752  99.0000    -58.67517   1461.0035 -57.54     1.678     1.607  99.0000        115     98.51365
 0.00    376.6144  99.0000    -22.13562     86.3840  23.01     1.364     0.457  99.0000        116     70.33929
 0.00    398.9585  99.0000    -60.08337    354.4046 -56.82     1.759     1.641  99.0000        117     103.6897
 0.00    380.9103  99.0000    -52.07031    125.6369 -22.70     0.902     0.682  99.0000        118     81.61037
 3.64    394.5150  23.4432     69.61829   1088.6681 -16.65     1.553     1.372   1.4274        119     91.50349
 0.00    420.3994  99.0000    -36.46558    433.1460 -57.35     1.997     1.878  99.0000        120     117.0517
 3.50    416.4439  25.2889     12.71814    837.1794 -67.30     1.895     1.794   9.5695        121     112.0684
 5.36    390.0044  22.8895     115.9294   1195.2917  85.80     0.739     0.674   0.5992        122     63.96325
 0.00    390.2305  99.0000    -15.04712    260.4030  71.18     0.744     0.452  99.0000        123     65.43387
 4.81    397.2771  22.9336     111.3158    977.5050 -21.24     1.103     0.780   0.7553        124     77.42239
 0.00    397.9344  99.0000    -94.91077    626.5070  15.77     1.528     0.795  99.0000        125      115.826
 0.00    440.8153  99.0000    -42.51025    305.5588 -50.74     1.189     1.082  99.0000        126     68.97335
 0.00    407.6977  99.0000    -82.96985    281.6329 -82.40     1.007     0.467  99.0000        127     72.99453
 7.28    415.6719  22.5991     151.4808      2.5615  28.95     1.141     0.754   0.6816        128      95.0732
 7.80    404.5128  23.3062     78.97754    526.8889  -1.99     0.784     0.499   1.1616        129     84.47475
 0.00    425.0124  99.0000    -76.36169    926.1458 -46.76     1.635     1.521  99.0000        130     95.57228
 0.00    461.8470  99.0000     -345.366    807.3679 -54.81     2.148     2.048  99.0000        131      126.806
 0.00    413.7131  99.0000    -11.27148   1562.2982 -60.78     1.155     0.451  99.0000        132      90.4577
 3.50    438.7642  23.4342     70.19934    251.9271 -54.88     1.813     1.728   1.6599        133     107.2974
 0.00    421.8596  99.0000     -148.749    158.7295  50.88     1.660     1.444  99.0000        134     131.2307
 5.46    412.6987  23.1519     91.04358    199.3263  43.64     0.560     0.342   0.5072        135     42.51803
 9.12    415.3152  27.8322     1.222168    558.6304  42.89     0.584     0.328  60.0504        136      67.5798
 0.00    419.5396  99.0000     -144.573   1203.5216  13.28     1.222     0.608  99.0000        137     92.02193
 3.50    433.6358  24.2863     32.02405   1421.9036 -17.73     1.428     1.337   2.8455        138     83.90971
 0.00    427.7109  99.0000    -7.663208   1179.3110  20.69     1.296     0.986  99.0000        139     118.2647
 0.00    420.6244  99.0000    -31.45239   1579.7715  17.88     0.757     0.446  99.0000        140     56.87688
 0.00    424.8950  99.0000    -128.7947   1063.8502 -46.61     0.815     0.670  99.0000        141     92.02193
 6.86    431.8513  23.3536     75.60425    717.7710 -64.55     0.930     0.895   1.5665        142     109.0564
 5.00    434.9498  25.0401     15.99451    151.0015  25.47     1.154     0.980   6.1775        143      90.9821
 0.00    468.5386  99.0000    -629.8197    850.1890  22.22     7.442     1.903  99.0000        144     290.3442
 0.00    451.1122  99.0000    -52.97742     21.1382 -39.37     1.703     1.572  99.0000        145     99.47478
 0.00    446.1109  99.0000    -94.21045    122.1262 -32.70     1.653     1.204  99.0000        146     131.9538
 0.00    434.6680  99.0000    -8.590454    353.3013  46.61     0.562     0.341  99.0000        147     52.52854
 0.00    448.0235  99.0000    -177.9531    884.3464  -1.26     2.252     1.419  99.0000        148     110.3574
 3.50    458.6750  23.8004     50.09949     34.3958 -60.50     1.679     1.537   2.1144        149     97.54305
 0.00    444.1706  99.0000    -107.2897    654.5854 -70.39     0.757     0.448  99.0000        150     54.30967
 3.53    464.5988  22.8339     122.0222    468.4730 -73.92     1.596     1.441   0.8190        151     92.02193
 0.00    453.8176  99.0000     -59.3269   1533.1399  37.42     0.790     0.678  99.0000        152     55.17868
 5.10    461.9113  24.4699     27.04297   1096.1396  54.35     1.156     1.063   3.9367        153     98.02955
 3.50    472.0582  22.9164     113.0916    254.1115 -72.83     1.524     1.321   0.8219        154     85.59367
 5.22    462.3787  22.8654     118.5377    724.6503 -28.34     1.116     0.728   0.7315        155     79.84242
 7.22    457.7005  23.5814     61.29834   1223.6603 -42.96     0.565     0.339   0.9465        156     53.42653
 0.00    472.9619  99.0000    -14.87537    734.7728 -38.58     1.496     1.347  99.0000        157     85.59367
 0.00    478.7596  99.0000    -231.9927    922.8173 -35.41     1.544     1.447  99.0000        158      90.4577
 0.00    478.7934  99.0000    -10.30457   1276.8331 -53.38     1.380     1.256  99.0000        159     88.86594
 0.00    476.5136  99.0000    -7.057739   1168.0371 -89.76     0.813     0.676  99.0000        160     56.87688
 0.00    533.7934  99.0000    -67.66968    518.6295  28.40     4.107     3.566  99.0000        161      281.864
 0.00    484.9557  99.0000    -123.5688   1070.4277 -66.11     1.365     1.226  99.0000        162     78.03444
 0.00    473.4778  99.0000    -124.3606    781.5225  45.02     0.505     0.494  99.0000        163     70.33929
 0.00    496.9649  99.0000    -37.58997     82.5904  56.28     2.338     2.068  99.0000        164     188.1342
 0.00    489.7222  99.0000    -249.8516    839.5610  85.43     1.974     0.945  99.0000        165     122.6097
 4.09    496.5237  24.6315     23.30127   1186.6776 -15.91     2.961     1.842   7.7017        166     165.2484
 0.00    481.6935  99.0000    -90.27783   1309.1306  71.28     0.894     0.694  99.0000        167     63.96325
 3.62    479.8593  23.1589     90.45789    682.6145  17.68     1.030     0.720   0.6414        168     53.42653
 5.99    481.6788  23.9685     42.91516   1520.4889  -0.10     0.921     0.467   1.7102        169      67.5798
