#   1 KRON_RADIUS            Kron apertures in units of A or B                         
#   2 Y_IMAGE                Object position along y                                    [pixel]
#   3 MAG_BEST               Best of MAG_AUTO and MAG_ISOCOR                            [mag]
#   4 FLUX_BEST              Best of FLUX_AUTO and FLUX_ISOCOR                          [count]
#   5 X_IMAGE                Object position along x                                    [pixel]
#   6 THETA_IMAGE            Position angle (CCW/x)                                     [deg]
#   7 A_IMAGE                Profile RMS along major axis                               [pixel]
#   8 B_IMAGE                Profile RMS along minor axis                               [pixel]
#   9 MAGERR_BEST            RMS error for MAG_BEST                                     [mag]
#  10 NUMBER                 Running object number                                     
#  11 FLUXERR_BEST           RMS error for BEST flux                                    [count]
 0.00     54.0606  99.0000    -170.7557     63.4906  10.24     5.079     4.642  99.0000          1     280.2136
 3.50     17.6089  23.9848     42.27551    984.8857 -88.11     4.179     1.842   3.7348          2     145.3863
 3.50     18.7909  22.2239     214.0178     91.0583 -77.68     1.665     1.590   0.4337          3     85.47398
 3.50     15.4372  24.1570     36.07458   1445.5699 -58.56     1.765     1.663   2.7189          4     90.31591
 8.71      7.7679  22.7431     132.6631   1469.4524 -68.75     0.745     0.449   0.6089          5      74.3811
 0.00      4.5160  99.0000    -66.00916    145.3089  44.41     1.257     0.896  99.0000          6     78.55521
 0.00     10.4944  99.0000    -12.39954   1183.4982  44.88     0.503     0.497  99.0000          7     55.86524
 3.50     60.5870  22.4187     178.8657   1078.2454  78.89     2.101     1.994   0.6468          8     106.5308
 7.81     14.3362  23.1815     88.59302    839.6812  45.80     0.572     0.336   0.6364          9     51.91671
 3.71     25.5086  25.1504     14.44861    367.0246 -44.58     1.386     1.224   5.3714         10     71.46306
 0.00     17.9751  99.0000    -32.07581    384.0876  -6.21     1.065     0.750  99.0000         11     50.53201
 0.00    182.7325  99.0000    -772.3953   1107.3342 -33.02     5.842     5.048  99.0000         12     283.9851
 0.00     24.5880  99.0000    -167.4861    383.1618  87.82     1.000     0.715  99.0000         13     100.0057
 7.77     35.5278  22.7688     129.5591   1110.5074  83.69     1.018     0.640   0.7861         14     93.78344
 0.00     34.3293  99.0000    -114.7209    326.4466 -55.26     1.064     0.824  99.0000         15     97.12727
 0.00     38.8936  99.0000    -43.88953   1521.2977  57.82     1.154     0.680  99.0000         16     75.32867
 0.00     39.8461  99.0000    -24.63721   1170.4801  -0.97     0.941     0.732  99.0000         17     71.95762
 0.00     45.8528  99.0000    -184.3633    440.1219 -39.18     1.403     1.002  99.0000         18     98.93612
 0.00     43.2799  99.0000    -112.7842    915.3459 -44.82     1.174     0.700  99.0000         19      46.1292
 3.50     80.9598  22.2903     201.3252    537.4124 -67.89     2.020     1.918   0.5564         20      103.148
 0.00     40.5038  99.0000    -28.63928   1225.9862 -32.64     0.782     0.319  99.0000         21     47.64204
 6.55     51.1657  23.0139     103.3834    265.9854  36.65     0.939     0.465   0.6910         22     65.77794
 0.00     51.0299  99.0000    -16.58203   1435.2108 -33.32     0.788     0.497  99.0000         23     58.34934
 6.80     49.3377  23.5953     60.51709   1233.6754  45.58     0.575     0.334   0.7853         24       43.762
 0.00     75.9613  99.0000    -35.92163    127.6706  65.46     1.365     1.260  99.0000         25     67.37601
 5.75     82.8388  22.2502     208.8833    421.4473 -51.35     1.212     0.808   0.4422         26     85.05805
 5.12     91.5345  21.6971     347.6493    376.7948 -74.03     1.886     1.573   0.4101         27      131.286
 3.50    122.5929  22.4361     176.0234    788.9210 -57.93     2.107     1.961   0.6531         28     105.8629
 3.64     97.3432  22.8077     125.0056     55.9943  -9.78     1.501     1.385   0.6825         29     78.55521
 6.18     92.9185  22.7798     128.2539    495.8493  75.14     1.341     0.684   0.7411         30     87.52401
 0.00     98.7693  99.0000    -7.409912    452.5781 -24.86     1.703     0.981  99.0000         31     117.3049
 4.43     96.5883  23.4488      69.2594   1075.8324  21.36     0.766     0.435   0.6052         32     38.59446
 8.01    114.3489  23.0112     103.6422    270.3333 -45.61     0.584     0.329   0.5651         33     53.92712
 7.06    117.8673  23.2949     79.80322     66.8318  46.85     0.748     0.562   0.9311         34     68.42067
 6.06    118.7044  24.4049     28.71118    990.6282 -41.71     0.576     0.332   1.4942         35     39.50269
 8.28    118.5058  26.6097     3.768188    154.4909  45.33     0.502     0.498  17.5031         36     60.73192
 0.00    235.9001  99.0000    -1846.071    403.1562 -56.45     6.429     5.300  99.0000         37     369.3218
 0.00    194.4204  99.0000    -105.1401    317.8754 -62.51     2.391     2.159  99.0000         38     118.2084
 0.00    163.1395  99.0000    -75.44739   1468.1359 -60.49     1.999     1.918  99.0000         39     101.4143
 0.00    132.4922  99.0000    -48.23413    418.0420   0.54     0.804     0.500  99.0000         40     47.64204
 3.50    171.1363  29.1093    0.3769531    877.1224 -68.32     1.766     1.710 260.1997         41     90.31591
 5.36    147.2958  23.0126     103.5077    353.1507 -30.05     0.879     0.605   0.6122         42     58.34934
 0.00    152.5081  99.0000    -138.4141   1279.9960  -1.46     0.803     0.500  99.0000         43     63.02449
 4.82    172.3745  23.7850     50.81445    325.0115 -64.12     1.467     1.346   2.1674         44     101.4143
 3.59    165.8674  23.3848     73.46484   1445.5350  -0.27     1.320     1.134   0.9724         45     65.77794
 4.17    167.5935  22.9777      106.887    104.3067 -28.86     1.173     1.010   0.6738         46     66.31491
 0.00    170.4302  99.0000    -47.59668   1368.2188 -47.27     1.080     0.717  99.0000         47     66.84756
 0.00    169.4399  99.0000     -47.4967    651.5150 -35.83     0.503     0.493  99.0000         48     42.94395
 0.00    181.2359  99.0000    -91.04675    574.8821  23.27     1.275     0.773  99.0000         49     66.31491
 4.36    193.3881  24.9006     18.18628   1350.3933 -35.33     1.357     1.132   4.7976         50     80.34077
 0.00    186.9876  99.0000    -55.20007   1354.0366 -74.11     0.796     0.783  99.0000         51     99.29394
 3.72    211.5532  22.4830     168.5831    827.4822  -7.29     3.936     1.949   0.9841         52     152.7613
 0.00    207.5034  99.0000    -130.7346    548.9205 -81.30     1.549     1.369  99.0000         53      74.3811
 0.00    196.0324  99.0000    -15.69702    267.5382  56.83     0.765     0.324  99.0000         54     58.34934
 0.00    229.8139  99.0000    -12.37378    414.8996 -19.48     1.967     1.652  99.0000         55     62.45924
 0.00    211.4506  99.0000    -9.291382    684.4574 -82.33     1.680     1.042  99.0000         56     70.96505
 4.07    209.4233  23.6500     57.54504    349.7025  43.13     1.598     1.217   1.6364         57     86.70982
 3.50    204.3587  23.5136     65.24622    250.6058 -42.34     0.981     0.848   0.8053         58     48.38072
 3.50    212.9739  24.2076     34.43286   1305.9009  53.84     1.403     1.346   2.2065         59      69.9584
 4.51    231.0750  22.5888     152.9308    562.2184  -9.41     3.381     2.852   1.4820         60      208.689
 3.50    204.4280  26.1417     5.798584   1498.4841 -36.27     0.505     0.489   5.4640         61     29.17467
 7.06    205.7527  24.1067     37.78418    937.2287 -19.28     0.855     0.346   1.6418         62      57.1208
 3.57    224.5217  24.2900     31.91565   1225.8657 -53.97     1.548     1.416   2.6883         63     79.00538
 0.00    260.5782  99.0000    -206.7935    997.2145 -60.88     2.174     2.033  99.0000         64     109.1616
 3.50    266.7132  23.4847     67.00574     67.3777 -78.85     2.116     1.998   1.7266         65     106.5308
 0.00    223.1785  99.0000    -109.4294    345.6050 -22.38     1.579     1.463  99.0000         66     117.0022
 0.00    223.2261  99.0000    -100.8832    774.7524 -19.32     1.202     1.068  99.0000         67     59.55255
 0.00    219.2476  99.0000    -24.99646    740.7268 -18.84     0.845     0.353  99.0000         68     58.95401
 4.32    244.2684  23.5201     64.85632    112.8208  77.16     2.123     1.544   1.9439         69     116.0893
 0.00    256.2215  99.0000     -200.392    612.7909 -37.89     2.503     1.802  99.0000         70     142.6778
 6.09    239.9036  21.3271     488.8259    838.4949 -37.93     1.369     1.007   0.2381         71     107.1946
 5.00    240.0472  23.8381     48.39001   1478.8186 -53.93     0.940     0.464   1.1021         72     49.10829
 3.50    313.2080  24.1361     36.77673    439.2092 -58.52     2.401     2.209   3.5521         73     120.2902
 6.70    252.6677  21.4589     432.9409   1372.6152 -44.30     1.226     0.877   0.2596         74     103.4913
 0.00    251.4614  99.0000    -3.218506    107.4959 -45.23     1.084     0.836  99.0000         75     98.93612
 0.00    254.3471  99.0000    -22.92151   1352.5072   0.00     0.868     0.476  99.0000         76     53.26542
 0.00    288.3375  99.0000    -132.9177   1486.2755 -55.67     1.869     1.782  99.0000         77     95.65556
 3.50    282.7324  23.1198     93.77441   1522.1934 -43.42     1.561     1.489   0.9304         78     80.34077
 6.94    271.2609  23.2766     81.16333   1273.5472 -11.08     1.161     0.926   1.4431         79     107.8542
 3.57    290.6129  24.6692     22.50696    514.7311 -61.03     1.859     1.552   4.3956         80     91.09788
 0.00    319.4862  99.0000    -78.72253    905.2509 -61.70     2.069     1.942  99.0000         81     104.5143
 3.50    303.9936  22.2268     213.4403    201.5941 -73.78     1.829     1.708   0.4752         82     93.40452
 5.16    297.8686  23.0253     102.3044   1413.5083 -39.26     2.150     1.549   1.4906         83     140.4228
 3.56    294.7549  22.1945      219.882   1327.3584 -23.02     1.400     1.322   0.3602         84     72.93668
 3.50    352.2489  22.2146     215.8481   1345.7200 -52.96     2.313     2.158   0.5841         85     116.0893
 0.00    352.2323  99.0000     -248.306    890.5778 -52.57     2.350     2.174  99.0000         86     118.2084
 6.19    294.2966  24.6878       22.125   1475.4912 -66.12     1.171     0.977   4.8209         87     98.21658
 3.50    302.8696  23.5983     60.34924    563.5292  64.37     1.321     1.261   1.1837         88     65.77794
 0.00    322.8518  99.0000    -72.51038    697.1324 -67.39     1.711     1.657  99.0000         89     87.11787
 0.00    309.7060  99.0000    -63.63879     85.4069 -81.45     1.983     0.885  99.0000         90      127.448
 5.00    322.1810  22.4786     169.2671    641.0074 -76.22     2.195     1.269   0.7960         91     124.0638
 4.49    328.1170  21.8050     314.7621    595.2689 -50.18     1.627     1.559   0.3733         92     108.1826
 0.00    317.8036  99.0000    -10.80737    226.3809 -71.76     0.752     0.447  99.0000         93     45.35387
 0.00    347.0935  99.0000    -143.5492    866.9109 -38.15     1.821     1.669  99.0000         94      96.0256
 5.35    332.8581  23.2900     80.16479     93.4377  -7.83     1.068     0.836   1.0394         95     76.72809
 4.20    330.3324  25.1308     14.71252   1545.6162  -6.15     0.994     0.631   3.6778         96     49.82523
 4.50    335.7877  26.0557     6.276489   1440.3218 -48.97     0.986     0.855  10.6088         97      61.3131
 3.79    356.5633  22.4209      178.504    431.6613 -76.63     1.957     1.739   0.6317         98     103.8334
 3.50    350.8575  24.7176     21.52661     54.4747 -39.25     1.290     1.224   3.2636         99     64.69062
 5.14    348.6108  22.9769     106.9639     42.2829 -59.05     0.983     0.545   0.5799        100      57.1208
 0.00    368.9762  99.0000    -95.12122    760.8817 -55.02     1.739     1.636  99.0000        101     86.70982
 0.00    351.1112  99.0000    -112.8353    920.2661 -17.72     0.939     0.676  99.0000        102     83.79786
 3.50    362.0320  22.2956     200.3275   1500.1698  10.15     1.428     1.398   0.3954        103     72.93668
 3.61    368.2886  22.4561      172.803    442.6443 -44.79     1.606     1.455   0.5186        104     82.51842
 6.16    353.6877  24.3930     29.02783    350.3493  43.36     0.575     0.334   1.5436        105     41.25921
 0.00    396.0084  99.0000    -196.4001    231.2756 -59.51     2.003     1.932  99.0000        106     101.4143
 6.26    360.5867  22.5781     154.4412    533.2850  21.62     1.031     0.915   0.6433        107     91.48636
 3.53    361.4968  23.4566     68.76599   1033.7421 -34.22     1.094     0.910   0.8090        108     51.22904
 0.00    363.8832  99.0000    -124.5613   1415.6968 -78.20     1.038     0.416  99.0000        109     58.34934
 3.50    373.7502  23.7280     53.55579    992.1270 -58.62     1.191     1.021   1.1456        110     56.49651
 0.00    373.9765  99.0000    -120.2289   1083.8434 -45.30     1.443     1.000  99.0000        111      88.3307
 0.00    369.9420  99.0000    -23.56104    210.5096  87.58     0.786     0.499  99.0000        112      57.1208
 6.59    371.1455  23.9117     45.21875     71.4292 -16.36     1.204     0.716   2.2065        113     91.87319
 6.58    376.9810  22.9641     108.2365    753.9877  38.43     1.723     0.867   1.2099        114     120.5847
 0.00    397.8752  99.0000    -52.89783   1461.0035 -57.54     1.678     1.607  99.0000        115     85.05805
 5.17    376.6144  22.7373     133.3722     86.3840  23.01     1.364     0.457   0.4945        116     60.73192
 0.00    398.9585  99.0000    -42.01489    354.4046 -56.82     1.759     1.641  99.0000        117     89.52711
 5.97    380.9103  23.1066     94.91711    125.6369 -22.70     0.902     0.682   0.8062        118     70.46352
 3.64    394.5150  23.4850     66.98682   1088.6681 -16.65     1.553     1.372   1.2808        119     79.00538
 0.00    420.3994  99.0000    -75.07532    433.1460 -57.35     1.997     1.878  99.0000        120      101.064
 3.50    416.4439  25.0095     16.45166    837.1794 -67.30     1.895     1.794   6.3874        121     96.76144
 0.00    390.0044  99.0000    -23.37622   1195.2917  85.80     0.739     0.674  99.0000        122     55.22676
 6.62    390.2305  23.4688     67.99243    260.4030  71.18     0.744     0.452   0.9024        123     56.49651
 0.00    397.2771  99.0000    -53.76514    977.5050 -21.24     1.103     0.780  99.0000        124     66.84756
 0.00    397.9344  99.0000    -20.62695    626.5070  15.77     1.528     0.795  99.0000        125     100.0057
 0.00    440.8153  99.0000    -41.96191    305.5588 -50.74     1.189     1.082  99.0000        126     59.55255
 6.01    407.6977  23.7628     51.86658    281.6329 -82.40     1.007     0.467   1.3196        127     63.02449
 0.00    415.6719  99.0000     -210.986      2.5615  28.95     1.141     0.754  99.0000        128     82.08752
 0.00    404.5128  99.0000    -145.2628    526.8889  -1.99     0.784     0.499  99.0000        129     72.93668
 3.50    425.0124  23.9579     43.33313    926.1458 -46.76     1.635     1.521   2.0680        130     82.51842
 3.50    461.8470  23.4319      70.3479    807.3679 -54.81     2.148     2.048   1.6902        131      109.486
 7.26    413.7131  23.6720     56.38928   1562.2982 -60.78     1.155     0.451   1.5042        132     78.10243
 0.00    438.7642  99.0000    -126.0771    251.9271 -54.88     1.813     1.728  99.0000        133     92.64202
 4.91    421.8596  21.4821       423.79    158.7295  50.88     1.660     1.444   0.2904        134     113.3064
 0.00    412.6987  99.0000       -63.12    199.3263  43.64     0.560     0.342  99.0000        135     36.71066
 9.12    415.3152  24.9033     18.14136    558.6304  42.89     0.584     0.328   3.4930        136     58.34934
 0.00    419.5396  99.0000    -94.25903   1203.5216  13.28     1.222     0.608  99.0000        137       79.453
 0.00    433.6358  99.0000    -56.03503   1421.9036 -17.73     1.428     1.337  99.0000        138      72.4488
 0.00    427.7109  99.0000    -44.47058   1179.3110  20.69     1.296     0.986  99.0000        139     102.1113
 0.00    420.6244  99.0000    -10.21594   1579.7715  17.88     0.757     0.446  99.0000        140     49.10829
 0.00    424.8950  99.0000    -16.47412   1063.8502 -46.61     0.815     0.670  99.0000        141       79.453
 0.00    431.8513  99.0000    -142.7761    717.7710 -64.55     0.930     0.895  99.0000        142     94.16084
 0.00    434.9498  99.0000    -11.63159    151.0015  25.47     1.154     0.980  99.0000        143     78.55521
 4.46    468.5386  20.7515     830.5917    850.1890  22.22     7.442     1.903   0.3278        144     250.6872
 3.51    451.1122  23.8467      48.0094     21.1382 -39.37     1.703     1.572   1.9428        145      85.8879
 0.00    446.1109  99.0000    -74.16187    122.1262 -32.70     1.653     1.204  99.0000        146     113.9307
 7.20    434.6680  26.3693     4.701782    353.3013  46.61     0.562     0.341  10.4757        147     45.35387
 3.57    448.0235  26.2671     5.165894    884.3464  -1.26     2.252     1.419  20.0311        148     95.28407
 0.00    458.6750  99.0000    -43.60352     34.3958 -60.50     1.679     1.537  99.0000        149     84.22002
 5.33    444.1706  24.7865     20.20276    654.5854 -70.39     0.757     0.448   2.5207        150     46.89172
 0.00    464.5988  99.0000    -78.10901    468.4730 -73.92     1.596     1.441  99.0000        151       79.453
 0.00    453.8176  99.0000    -83.38879   1533.1399  37.42     0.790     0.678  99.0000        152     47.64204
 5.10    461.9113  25.1523     14.42358   1096.1396  54.35     1.156     1.063   6.3728        153     84.64007
 0.00    472.0582  99.0000    -38.66736    254.1115 -72.83     1.524     1.321  99.0000        154     73.90276
 0.00    462.3787  99.0000     -49.8114    724.6503 -28.34     1.116     0.728  99.0000        155     68.93706
 7.22    457.7005  23.7927     50.45618   1223.6603 -42.96     0.565     0.339   0.9929        156      46.1292
 0.00    472.9619  99.0000    -74.11279    734.7728 -38.58     1.496     1.347  99.0000        157     73.90276
 0.00    478.7596  99.0000    -133.3096    922.8173 -35.41     1.544     1.447  99.0000        158     78.10243
 0.00    478.7934  99.0000    -92.20728   1276.8331 -53.38     1.380     1.256  99.0000        159     76.72809
 0.00    476.5136  99.0000    -26.22168   1168.0371 -89.76     0.813     0.676  99.0000        160     49.10829
 4.27    533.7934  20.9321      703.313    518.6295  28.40     4.107     3.566   0.3758        161     243.3652
 3.50    484.9557  26.6000     3.802002   1070.4277 -66.11     1.365     1.226  19.2452        162     67.37601
 0.00    473.4778  99.0000    -25.85168    781.5225  45.02     0.505     0.494  99.0000        163     60.73192
 4.94    496.9649  22.2497     208.9912     82.5904  56.28     2.338     2.068   0.8441        164     162.4377
 0.00    489.7222  99.0000    -137.0356    839.5610  85.43     1.974     0.945  99.0000        165     105.8629
 0.00    496.5237  99.0000    -358.0651   1186.6776 -15.91     2.961     1.842  99.0000        166     142.6778
 4.58    481.6935  24.0965     38.14148   1309.1306  71.28     0.894     0.694   1.5725        167     55.22676
 3.62    479.8593  24.5637     24.80371    682.6145  17.68     1.030     0.720   2.0197        168      46.1292
 0.00    481.6788  99.0000    -59.27588   1520.4889  -0.10     0.921     0.467  99.0000        169     58.34934
