#   1 KRON_RADIUS            Kron apertures in units of A or B                         
#   2 MAGERR_APER            RMS error vector for fixed aperture mag.                   [mag]
#   3 Y_IMAGE                Object position along y                                    [pixel]
#   4 X_IMAGE                Object position along x                                    [pixel]
#   5 THETA_IMAGE            Position angle (CCW/x)                                     [deg]
#   6 FLUX_APER              Flux vector within fixed circular aperture(s)              [count]
#   7 A_IMAGE                Profile RMS along major axis                               [pixel]
#   8 B_IMAGE                Profile RMS along minor axis                               [pixel]
#   9 FLUX_RADIUS            Fraction-of-light radii                                    [pixel]
#  10 FLUXERR_APER           RMS error vector for aperture flux(es)                     [count]
#  11 MAG_APER               Fixed aperture magnitude vector                            [mag]
#  12 NUMBER                 Running object number                                     
 4.06   0.0006     54.8102     63.6162   7.95     143763.2     4.204     3.866     12.297     83.75552  15.1559          1
 4.70   0.0039     18.1055    984.9224 -87.76     23439.61     3.562     1.819      9.182     83.72706  17.1251          2
 3.50   0.0045     19.5111     91.2539 -74.58      20199.2     1.594     1.593      4.782     83.73655  17.2867          3
 3.56   0.0017     16.2668   1445.6176   5.53     52367.33     1.890     1.805      4.864     83.80292  16.2523          4
 4.37   0.0211     26.1560    366.6079  16.67     4313.751     1.016     0.880      3.748     83.81239  18.9629          5
 3.50   0.0004     61.3924   1078.3998  50.84       236570     2.294     2.198      5.134     83.74603  14.6151          6
 3.50   0.0004     81.5718    537.4313  -5.04     227991.8     2.231     2.187      5.214     83.81239  14.6552          7
 3.50   0.0000    183.5919   1107.5521 -24.07      2233934     4.890     4.553     10.080     83.82187  12.1773          8
 3.90   0.0109     76.6700    128.0600  63.24     8383.382     1.316     1.219      4.516       83.765  18.2415          9
 3.50   0.0003    123.3897    788.9986  15.16     339019.9     2.311     2.260      5.199       83.765  14.2244         10
 4.09   0.0072     98.1763     56.0645  12.14     12553.32     1.461     1.381      4.802     83.80292  17.8031         11
 8.72   0.0323     99.7577    453.0021   0.10     2816.552     0.695     0.428      4.024     83.81239  19.4257         12
 3.50   0.0001    195.1722    317.9897 -45.18      1448808     2.614     2.518      5.426     83.79344  12.6475         13
 3.50   0.0005    163.8853   1468.2463   6.52     192682.7     2.168     2.119      5.095       83.765  14.8379         14
 3.95   0.0021    171.8063    877.2582 -13.05     43134.98     1.849     1.810      5.159     83.83134  16.4629         15
 6.26   0.0213    166.6234   1445.5895 -45.57     4263.381     1.074     0.955      5.129     83.78396  18.9756         16
 6.27   0.0098    173.0470    325.1680  -4.64     9309.716     1.249     1.149      6.883     83.81239  18.1277         17
 7.19   0.0330    168.1921    104.1895  44.40     2754.133     0.754     0.563      4.439     83.74603  19.4500         18
 4.85   0.0007    236.3907    403.5207 -42.71     132632.7     5.571     4.586     18.337     83.79344  15.2434         19
 6.14   0.0172    194.1268   1350.6166  55.74     5290.443     1.147     1.041      5.429     83.84082  18.7413         20
 5.77   0.0051    212.2842    827.3955  -7.78     17959.84     3.064     1.803     10.757     83.77448  17.4142         21
 5.10   0.0100    208.3243    548.9987  14.64      9058.23     1.403     1.345      5.078     83.81239  18.1574         22
 6.34   0.0152    210.3540    349.7424  51.36     5966.789     1.187     1.029      5.995     83.77448  18.6106         23
 3.83   0.0100    213.7674   1306.0284  -4.51     9107.053     1.489     1.313      4.401     83.80292  18.1516         24
 9.38   0.0333    212.9898    684.5063 -57.67     2727.563     0.791     0.316      3.799     83.75552  19.4606         25
 3.50   0.0002    261.3132    997.3710 -23.07     588233.6     2.403     2.367      5.236     83.77448  13.6261         26
 6.49   0.0061    231.9824    561.7929   6.10     14987.24     2.483     2.286     11.593     83.75552  17.6107         27
 4.02   0.0088    225.6863   1226.0515  38.45      10377.9     1.477     1.312      4.531     83.74603  18.0097         28
 6.12   0.0257    224.2461    774.5557 -15.37      3540.52     1.009     0.965      4.681     83.82187  19.1773         29
 3.50   0.0002    267.4353     67.6016  -3.84     433137.7     2.371     2.303      5.360     83.77448  13.9584         30
 7.01   0.0130    245.6219    113.0311 -81.84     6982.023     1.356     1.122      7.559     83.78396  18.4400         31
 5.62   0.0053    256.8119    612.8681 -22.48     17266.79     2.112     1.770      7.904     83.83134  17.4570         32
 7.99   0.0259    253.1951   1372.6124 -71.84      3504.81     0.758     0.448      4.251     83.74603  19.1883         33
 3.50   0.0001    313.6460    439.4265 -24.89      1709426     2.632     2.551      5.484     83.82187  12.4679         34
 3.50   0.0009    289.1028   1486.3685  -1.22     103048.5     2.022     1.962      4.910     83.71758  15.5174         35
 4.05   0.0039    283.4547   1522.2284  -4.74     23062.08     1.677     1.596      4.816     83.81239  17.1428         36
 5.18   0.0104    291.1014    514.9318 -18.94     8733.278     1.625     1.502      5.795     83.74603  18.1971         37
 3.61   0.0012    304.6104    201.7310  31.11     74958.73     1.979     1.947      5.137     83.83134  15.8629         38
 3.50   0.0003    320.2000    905.3687  10.23     296811.3     2.242     2.205      5.192       83.765  14.3688         39
 4.85   0.0092    295.4975   1327.5172 -13.90     9834.979     1.372     1.364      4.896     83.69859  18.0681         40
 6.62   0.0193    294.9007   1475.5369 -74.29     4721.261     1.173     0.974      5.902     83.74603  18.8649         41
 3.50   0.0001    352.8514    890.7111 -28.70      1561388     2.568     2.504      5.302     83.73655  12.5662         42
 3.50   0.0001    352.8624   1345.7847 -23.23      1482715     2.524     2.493      5.264     83.78396  12.6224         43
 8.97   0.0190    299.3999   1412.7705 -18.71     4790.326     0.759     0.449      4.552     83.74603  18.8491         44
 3.75   0.0018    323.5458    697.2219   5.39     49980.09     1.928     1.868      5.049     83.82187  16.3030         45
 7.68   0.0214    303.9609    563.0087   0.52     4250.549     1.078     0.725      5.115     83.80292  18.9789         46
 5.80   0.0097    328.9993    595.2292 -20.45     9390.244     1.631     1.429      6.605     83.74603  18.1183         47
 9.34   0.0225    322.4987    641.4872  45.81     4044.801     0.503     0.497      3.017     83.69859  19.0328         48
 4.63   0.0026    347.9163    866.9841  39.24     34703.67     1.830     1.739      5.901     83.80292  16.6991         49
 7.46   0.0432    333.5166     93.5302  48.31     2104.773     0.502     0.497      3.013     83.71758  19.7420         50
 4.55   0.0033    357.2899    431.7542 -86.08     27715.91     1.966     1.846      6.167     83.73655  16.9432         51
 6.03   0.0188    351.3906     54.6137  40.34     4848.465     1.061     0.951      4.843     83.75552  18.8360         52
 4.15   0.0018    369.6064    761.0257  39.72     51565.28     1.902     1.847      5.126     83.79344  16.2691         53
 5.27   0.0097    362.6790   1500.2339  23.19     9347.422     1.478     1.287      5.196       83.765  18.1233         54
 4.23   0.0046    368.8589    442.7273   2.26     19577.83     1.676     1.588      5.037     83.74603  17.3206         55
 7.68   0.0373    361.9861   1033.5194 -89.92     2442.406     0.798     0.500      4.244     83.80292  19.5805         56
 3.50   0.0004    396.6423    231.3586   5.16     252101.5     2.248     2.188      5.214     83.79344  14.5461         57
 6.69   0.0302    374.2293    992.4621  -0.46     3017.337     0.965     0.724      4.418     83.79344  19.3509         58
 3.62   0.0025    398.5532   1461.1105  -0.57     36219.55     1.792     1.725      4.760     83.73655  16.6526         59
 3.57   0.0022    399.5710    354.4686  18.77     40962.62     1.831     1.777      4.874     83.79344  16.5190         60
 4.49   0.0105    395.4066   1088.5164 -42.15     8628.209     1.369     1.352      4.784     83.77448  18.2102         61
 3.50   0.0004    421.0752    433.2244  16.34     230527.4     2.212     2.168      5.161     83.78396  14.6432         62
 3.50   0.0008    417.0695    837.3176  35.07     111326.2     2.038     2.017      5.012     83.71758  15.4335         63
 7.26   0.0591    414.4749      1.5991 -88.23     1184.917     1.572     0.613      7.148     64.52565  20.3658         64
 4.05   0.0046    425.6546    926.3806  22.64     19969.62     1.672     1.608      4.973     83.81239  17.2991         65
 3.60   0.0011    439.4595    252.0048  10.36     82055.16     2.018     1.955      5.128     83.84082  15.7647         66
 7.26   0.0195    422.0591    159.4032  64.92     4661.038     1.300     0.858      6.223     83.84082  18.8788         67
 3.50   0.0001    462.6514    807.5664  -4.64     713908.9     2.400     2.356      5.195     83.81239  13.4159         68
 5.74   0.0137    434.3322   1421.9010  11.76     6628.061     1.245     1.134      4.818     83.74603  18.4965         69
 7.77   0.0347    435.2876    151.0216   3.41      2623.26     0.735     0.683      4.408     83.78396  19.5029         70
 4.32   0.0035    451.8255     21.2910 -11.88     26099.75     1.771     1.671      5.294     83.75552  17.0084         71
 5.78   0.0335    441.5108    305.5070 -83.02     2712.941     0.924     0.898      4.491     83.71758  19.4664         72
 7.34   0.0219    446.8344    122.0894 -82.33     4157.229     1.148     0.731      5.526     83.74603  19.0030         73
 4.33   0.0031    459.2914     34.4861 -51.43     29269.17     1.743     1.673      5.191     83.69859  16.8840         74
 5.74   0.0043    469.2626    850.4149  22.43     20978.83     5.847     1.730     17.607     83.78396  17.2455         75
 9.44   0.0205    448.6069    883.8131  18.70     4435.072     0.775     0.444      4.649     83.72706  18.9327         76
 3.80   0.0099    465.1890    468.4067  53.61     9223.057     1.531     1.320      4.692     83.74603  18.1378         77
 6.35   0.0293    462.6235   1096.4197  11.00     3101.194     0.976     0.807      4.884     83.78396  19.3212         78
 4.43   0.0078    473.5376    734.7532  22.27     11601.25     1.505     1.391      4.871     83.75552  17.8887         79
 4.73   0.0109    472.9802    254.2992 -12.91       8326.1     1.391     1.194      4.968     83.72706  18.2489         80
 4.19   0.0060    479.3217    922.9229  32.84     15078.95     1.511     1.481      4.741     83.75552  17.6041         81
 5.93   0.0157    479.4613   1276.8489 -86.46      5781.51     1.230     1.100      5.042     83.75552  18.6449         82
 5.74   0.0210    514.6971   1309.9906   7.70     4334.288     1.319     1.171      4.890     83.74603  18.9577         83
 4.12   0.0145    485.6152   1070.7526  -8.55     6289.076     1.321     1.259      4.598     83.79344  18.5535         84
 6.54   0.0087    497.5776     83.0067  66.37     10500.67     1.905     1.613      8.570     83.78396  17.9970         85
 6.64   0.0086    496.9010   1187.0255  -1.97     10602.05     1.974     1.349      8.186     83.72706  17.9865         86
 4.90   0.0012    534.4559    518.5499  34.05      73986.4     3.647     3.086     12.621     83.78396  15.8771         87
 3.67   0.0015    513.8845   1302.1998   8.49     62600.03     2.027     1.866      5.370     83.78396  16.0586         88
 7.04   0.0143    505.7164    762.5055 -85.19       6342.1     1.245     1.035      6.434     83.70808  18.5444         89
 5.97   0.0225    503.5783    863.4941  14.81     4036.324     0.923     0.889      4.495       83.765  19.0350         90
 5.48   0.0070    516.8466   1461.0226  24.80     13034.76     2.970     1.347      9.810     83.80292  17.7622         91
 5.84   0.0230    515.1458   1179.0188 -47.25     3956.083     1.176     1.000      4.622     83.81239  19.0568         92
 7.91   0.0244    511.1125    165.8792  45.76      3720.17     0.843     0.671      5.055     83.71758  19.1236         93
 7.31   0.0314    520.8629    641.8719 -43.04     2891.298     0.842     0.676      4.740     83.72706  19.3973         94
 3.50   0.0001    589.2521   1315.8784 -32.82      1596693     2.545     2.493      5.265     83.73655  12.5419         95
 3.92   0.0101    541.6472    999.7842  41.53     8992.335     1.306     1.290      4.362     83.80292  18.1653         96
 4.43   0.0074    560.3848   1041.6217  45.42     12312.76     1.536     1.379      4.896       83.765  17.8241         97
 3.77   0.0025    573.9904   1242.7697  14.96      36757.2     1.808     1.724      4.910     83.81239  16.6366         98
 5.79   0.0109    572.9567   1447.7887  47.55      8375.44     1.602     1.416      6.925     83.79344  18.2425         99
 6.09   0.0112    572.8408     45.9018  54.29     8102.828     1.694     1.258      6.784     83.71758  18.2784        100
 3.82   0.0018    583.6829    319.1039  10.22     49164.37     1.937     1.850      5.180     83.69859  16.3209        101
 3.67   0.0018    582.1736    144.8848 -10.85     49221.37     1.949     1.806      5.108     83.77448  16.3196        102
 3.50   0.0000    632.6119    483.1479 -14.17      2460423     2.723     2.636      5.663     83.82187  12.0725        103
 8.96   0.0381    566.4742    139.4969 -37.18     2385.097     0.501     0.498      3.005     83.71758  19.6062        104
 6.43   0.0130    576.0765   1336.7830  30.80      6989.95     1.349     1.065      6.478     83.82187  18.4388        105
 5.27   0.0040    598.0474    782.5241 -49.02     22992.15     2.863     2.518     10.365     83.74603  17.1461        106
 6.31   0.0269    586.1059     75.9743   1.54     3376.656     1.004     0.858      4.737     83.75552  19.2288        107
 4.83   0.0158   1002.6642   1555.2805 -80.59     5755.856     1.320     1.123      4.353     83.72706  18.6497        108
 6.93   0.0152   1598.2859    654.0801  -4.44      4963.54     1.283     0.698      4.906     69.33194  18.8105        109
 7.14   0.0277   1596.1770    374.0029  36.32     3025.405     0.939     0.470      4.704     77.04784  19.3480        110
 4.11   0.0051   1543.0918    134.7388  -2.70     17705.07     1.670     1.574      4.859     83.75552  17.4298        111
 4.75   0.0157    929.7796   1322.2466  36.33     5779.826     1.163     1.114      4.445     83.80292  18.6452        112
 0.00  99.0000    923.3777    806.9763  76.86    -30.32269     1.425     1.204     -2.836     83.79344  99.0000        113
 6.36   0.0222    914.1400    838.4391  67.51     4096.122     1.071     0.954      4.565     83.79344  19.0191        114
 7.87   0.0361    913.7532   1001.0084   0.41     2524.094     0.689     0.431      3.608     83.82187  19.5447        115
 4.08   0.0028    901.8284    302.6319  32.47     32644.16     1.843     1.740      5.091     83.80292  16.7655        116
 3.50   0.0000    883.3814    183.6500 -19.82      2447372     3.195     3.079      6.782     83.80292  12.0782        117
 6.89   0.0124    897.2708    538.1027  69.70     7362.666     1.425     1.164      6.423     83.74603  18.3824        118
 6.11   0.0043    880.5494    224.1360  88.64     21130.84     6.123     1.673     16.208       83.765  17.2377        119
 3.50   0.0002    881.6226   1592.4487  65.69     575831.5     2.397     2.351      5.060     83.80292  13.6493        120
 8.03   0.0210    889.9066    325.8675 -44.75     4322.569     0.844     0.672      5.065     83.73655  18.9606        121
 4.70   0.0207    887.2526   1499.8967 -51.10      4388.86     1.068     1.005      4.130     83.69859  18.9441        122
 7.97   0.0230    887.0178   1304.5103  88.51     3950.838     0.805     0.500      4.832     83.77448  19.0583        123
 6.94   0.0156    880.0314   1176.7563 -66.77     5844.023     1.170     1.034      6.316     83.82187  18.6332        124
 7.44   0.0349    878.8286    960.8246  45.21     2604.324     0.766     0.569      4.264     83.78396  19.5108        125
 4.81   0.0067    870.8043   1103.4138 -32.93     13569.61     1.741     1.609      5.891     83.75552  17.7186        126
 3.50   0.0001    860.6582   1224.3918   9.72      1475827     2.607     2.563      5.208     83.84082  12.6274        127
 7.51   0.0185    869.3853    940.0309  28.13      4915.62     1.297     0.789      6.555     83.81239  18.8211        128
 6.42   0.0206    861.3013   1157.3337  43.91     4420.182     1.024     0.870      4.915     83.77448  18.9364        129
 6.09   0.0242    859.8855   1339.4011 -27.27     3762.072     1.096     0.578      3.683     83.77448  19.1114        130
 7.01   0.0171    846.0428   1205.9912 -53.00     5330.569     0.803     0.795      4.818     83.80292  18.7331        131
 5.36   0.0153    844.5964   1106.1683  25.00     5950.291     1.276     1.066      5.212     83.80292  18.6137        132
 6.93   0.0332    846.1494   1063.8723  45.80     2737.093     0.835     0.668      4.541     83.72706  19.4568        133
 6.16   0.0091    839.1501   1247.1755 -29.21     10030.83     1.482     1.308      6.961     83.82187  18.0467        134
 4.70   0.0123    838.0167    298.7638   5.94     7419.349     1.395     1.172      4.777     83.81239  18.3741        135
 3.94   0.0027    824.4010    654.3109  37.31     33334.54     1.893     1.787      5.039     83.77448  16.7428        136
 3.65   0.0030    804.4127   1378.5909  18.36     30639.22     1.785     1.710      4.695     83.74603  16.8343        137
 3.54   0.0011    799.9121    695.5764  88.77     85961.77     2.586     2.008      6.482     83.78396  15.7142        138
 4.21   0.0064    802.0409     41.0905 -21.87     14230.01     1.571     1.521      4.970     83.74603  17.6670        139
 5.47   0.0071    775.2255   1427.2784 -85.98     12774.57     2.215     1.593      8.171     83.78396  17.7841        140
 5.37   0.0133    768.0120    391.6290  15.91     6861.373     1.314     1.196      5.009     83.80292  18.4590        141
 4.25   0.0118    744.2063    556.2775 -23.97     7740.466     1.405     1.311      4.729     83.79344  18.3281        142
 6.64   0.0293    739.1788   1157.6746  21.00     3101.249     0.921     0.685      4.200     83.81239  19.3212        143
 6.69   0.0288    737.1107    649.3793 -22.30     3154.683     0.925     0.684      4.097       83.765  19.3026        144
 3.50   0.0000    725.5227    404.7261 -14.90      1919244     2.719     2.589      5.410     83.73655  12.3422        145
 3.50   0.0003    727.9932    848.3524  23.62     342396.8     2.318     2.276      5.161     83.82187  14.2137        146
 5.28   0.0162    728.8334   1178.1766  42.38     5628.172     1.189     1.040      4.576     83.79344  18.6741        147
 5.28   0.0130    717.2914    808.3470  55.73     7022.501     1.312     1.312      4.956     83.74603  18.4338        148
 4.44   0.0129    710.4481   1163.6825   4.86     7053.239     1.327     1.237      4.489     83.74603  18.4290        149
 5.89   0.0109    705.5657   1338.9106 -81.17     8379.821     1.391     1.282      6.175     83.74603  18.2419        150
 3.99   0.0071    704.2521    952.3856  34.75     12805.21     1.483     1.448      4.639     83.82187  17.7815        151
 8.02   0.0208    692.9650   1213.7378  65.54      4376.24     1.084     0.816      6.503     83.78396  18.9472        152
 4.46   0.0087    686.9780    644.0174  -9.45     10500.68     1.476     1.408      4.805     83.77448  17.9970        153
