#   1 KRON_RADIUS            Kron apertures in units of A or B                         
#   2 MAGERR_APER            RMS error vector for fixed aperture mag.                   [mag]
#   3 Y_IMAGE                Object position along y                                    [pixel]
#   4 X_IMAGE                Object position along x                                    [pixel]
#   5 THETA_IMAGE            Position angle (CCW/x)                                     [deg]
#   6 FLUX_APER              Flux vector within fixed circular aperture(s)              [count]
#   7 A_IMAGE                Profile RMS along major axis                               [pixel]
#   8 B_IMAGE                Profile RMS along minor axis                               [pixel]
#   9 FLUX_RADIUS            Fraction-of-light radii                                    [pixel]
#  10 FLUXERR_APER           RMS error vector for aperture flux(es)                     [count]
#  11 MAG_APER               Fixed aperture magnitude vector                            [mag]
#  12 NUMBER                 Running object number                                     
 3.50   0.0001    181.0222   1105.8365 -40.31     733790.7     6.539     5.885     10.461     73.16861  13.3861          1
 3.68   0.0030     52.4050     61.7681  -2.27     26534.11     6.359     5.786     13.983     73.17689  16.9905          2
 3.50   0.0018     58.9521   1076.9418  81.32     44649.95     2.093     1.972      5.658     73.15205  16.4254          3
 3.50   0.0175     15.7237    983.4587 -87.90     4542.667     4.509     1.979      9.068     73.13549  18.9067          4
 3.50   0.0232     17.0120     89.4810 -42.63     3428.806     1.663     1.619      5.046     73.17689  19.2121          5
 3.50   0.0081     13.8143   1444.2383 -42.28     9778.025     1.721     1.697      5.092     73.18516  18.0744          6
 3.64   0.7868     16.2665    382.9738  86.43     100.9965     1.231     1.191      4.127     73.16861  23.0392          7
 4.95   0.2577     13.1674    839.5089 -76.27     308.2048     1.479     0.949      6.253     73.12721  21.8279          8
 3.64   0.3192      9.2333   1182.3411 -70.45     248.9815     1.026     0.964      3.218     73.17689  22.0596          9
 4.21   0.3950      5.6605   1467.9125   8.54       190.69     1.152     0.903      4.071     69.36147  22.3492         10
 4.51  68.0971      3.6078    143.2684  59.55     1.014502     1.696     1.490      2.507     63.61388  28.0344         11
 0.00  99.0000      3.6479    183.5916 -38.45    -196.9967     1.080     0.962      6.479     63.78502  99.0000         12
 6.99   0.6293      2.5114    843.4935  44.82     103.1733     0.507     0.493      3.041     59.78583  23.0161         13
 6.37  99.0000      1.8622    302.3619  20.33    -57.88503     0.906     0.677      5.436     57.39818  99.0000         14
 3.91   0.1385     23.8545    365.4416  -3.18      573.415     1.390     1.345      4.382     73.15205  21.1538         15
 4.93   0.8125     14.8386   1561.6169 -19.92     97.82223     0.905     0.686      3.092     73.18516  23.0739         16
 4.67   0.9652     17.1879   1213.4882  -0.33     82.32727     0.921     0.725      1.921     73.16861  23.2611         17
 7.39  99.0000     15.4944    192.9995 -32.51    -53.39965     0.786     0.318      3.728     73.13549  99.0000         18
 4.18   0.1743     33.0747   1108.5681  65.68     455.7963     2.036     1.213      5.526     73.14378  21.4031         19
 3.82   0.2410     23.0219    381.4543   6.25     329.8687     1.319     1.170      4.466     73.19344  21.7541         20
 5.46   0.4447     22.9778    696.8055  -3.26     178.6533     0.886     0.748      3.828     73.15205  22.4200         21
 0.00  99.0000     20.6041    212.2110 -18.94    -306.8045     0.744     0.450   -423.338     73.12721  99.0000         22
 6.44   0.1088     23.9324   1451.8411 -46.75     730.5181     0.843     0.652      4.278     73.16033  20.8909         23
 4.88   0.4705     32.3874    325.0325 -26.40     168.8948     1.486     1.262      4.848     73.16861  22.4810         24
 7.47   0.2987     26.2151    701.0262  -0.99     265.9979     0.703     0.411      3.433     73.16033  21.9878         25
 0.00  99.0000     33.5743     14.7714 -89.15    -209.2269     0.947     0.712      1.239     73.16861  99.0000         26
 3.57   0.4434     37.0450   1519.9745 -74.77     179.2615     1.093     1.076      3.484     73.19344  22.4163         27
 4.28   0.2281     38.0067   1169.0526  23.11      348.661     1.223     1.198      4.763     73.21825  21.6940         28
 3.71   0.2080     41.6028    913.7512 -64.32     382.1989     1.133     1.039      3.110     73.20998  21.5943         29
 3.50   0.0018     79.0617    535.8607 -66.40     43077.34     1.966     1.931      5.561     73.14378  16.4644         30
 4.97   0.3363     43.5270    438.5287 -52.86     236.0443     1.481     1.242      4.153     73.09408  22.1175         31
 0.00  99.0000     38.6270   1224.5396 -37.16    -2.864488     1.156     0.777   -101.716     73.17689  99.0000         32
 0.00  99.0000     49.4868    263.5109  89.83    -151.6984     1.455     1.089    -18.603     73.11065  99.0000         33
 4.50   0.4873     41.5007    999.9727  -1.62     162.9259     0.790     0.500      2.405     73.11065  22.5200         34
 0.00  99.0000     42.5779    226.7772  19.95    -405.5644     0.748     0.450    -24.303     73.16033  99.0000         35
 7.84   1.6840     45.7927    473.3825 -71.71     47.16543     0.746     0.449      4.478     73.13549  23.8659         36
 4.11   0.3306     49.4914   1433.9777  -4.26     240.2575     1.069     0.925      4.002     73.13549  22.0983         37
 5.09   0.7304     46.7959   1429.1587  44.33     108.8144     0.809     0.669      3.568     73.18516  22.9583         38
 5.94   0.2768     46.8517    664.8470 -43.30     287.1521     0.825     0.669      4.254     73.18516  21.9047         39
 6.42  99.0000     50.4846    119.9498   0.88    -131.5514     0.780     0.500      0.242     73.12721  99.0000         40
 3.52   0.0589     74.1052    126.4799 -19.14     1347.954     1.475     1.433      4.675     73.10236  20.2258         41
 7.34   1.7364     57.4917   1240.0228 -32.67     45.74242     0.781     0.319      2.531     73.13549  23.8992         42
 4.98   0.2471     64.9824   1146.2659   9.37     321.5833     1.374     1.141      5.950     73.17689  21.7818         43
 0.00  99.0000     68.4563     17.7707  88.90    -111.1135     0.996     0.721    -23.899     73.18516  99.0000         44
 0.00  99.0000     66.8790   1414.1798 -28.14    -78.01087     0.963     0.744      5.777     73.16861  99.0000         45
 6.93  99.0000     65.5014   1514.5054 -45.69    -51.02875     0.501     0.499      2.090     73.07751  99.0000         46
 5.53   0.7738     70.7447   1320.8502 -68.46     102.6804     0.911     0.682      2.627     73.16033  23.0213         47
 3.50   0.0012    120.9251    787.4896 -59.16     63921.51     2.018     1.992      5.621     73.10236  16.0359         48
 3.90   0.3884     81.3288    419.7149 -76.83     204.3815     1.520     1.278      4.853     73.10236  22.2739         49
 3.94   0.1052     89.6612    375.3916 -19.36     755.9861     2.301     2.014      6.979     73.20998  20.8537         50
 8.71   0.5040     75.8810     80.4187 -26.69     157.6734     1.370     0.840      3.459     73.17689  22.5556         51
 4.79   1.9078     78.7909   1031.8494 -33.64     41.66513     0.892     0.849      1.667     73.19344  24.0006         52
 3.50   0.0003    192.5951    316.2862 -64.39       270887     2.878     2.293      6.262     73.15205  14.4680         53
 3.50   0.0371     95.5876     54.3806 -29.57     2140.655     1.614     1.584      4.895     73.14378  19.7236         54
 5.86   0.8139     87.0195   1358.1309 -88.30     97.67693     0.995     0.847      5.058     73.20171  23.0755         55
 5.84   0.1477     87.4903    757.1628  35.83     537.5379     1.165     1.017      5.769     73.11893  21.2240         56
 6.63   0.2637     82.9746    930.8279  20.66     301.3276     1.160     0.723      4.116     73.16861  21.8524         57
 6.93   0.3746     86.4810    862.1655 -47.77     212.0985     1.108     0.733      5.355     73.15205  22.2337         58
 6.86   3.2281     85.0348   1559.2076  52.97     24.61554     0.930     0.470      2.915     73.16861  24.5720         59
 6.00   0.2821     90.8526   1043.8802  55.00      281.443     1.397     0.799      5.601     73.11065  21.9265         60
 3.82   0.2976     90.7001    494.0876   0.64     266.6162     1.105     1.019      3.903     73.06921  21.9853         61
 4.28   0.1496     97.1019    451.1805 -12.65     530.6761     1.924     1.255      5.631     73.11893  21.2379         62
 5.06   0.2398     94.6267   1074.8350  39.51     331.3109     1.336     1.126      6.231     73.16861  21.7494         63
 7.44   0.3288     85.3500    923.3128 -46.64     241.5161     0.575     0.334      1.383     73.11893  22.0926         64
 6.97   0.3413     87.8495    810.6924 -59.25     232.6545     0.869     0.590      4.422     73.11065  22.1332         65
 6.33   0.5762     94.0801    387.5246  89.88     137.8514     0.774     0.499      2.821     73.13549  22.7015         66
 4.03   0.0032    233.9082    401.8713 -47.20     24617.63     8.632     7.090     23.063     73.11065  17.0719         67
 6.55   0.2465    101.8555    517.3245  20.24     322.2327     0.933     0.683      5.314     73.12721  21.7796         68
 0.00  99.0000    112.7964    268.6332  80.50     -9.89084     1.522     1.118    -44.321     73.17689  99.0000         69
 4.71   0.4073    107.3404    861.3599  41.75     195.0711     0.979     0.859      3.656     73.16861  22.3245         70
 6.49   0.4376    106.1678   1098.1515 -41.98     181.6135     0.806     0.676      4.540     73.18516  22.4021         71
 6.85   2.1418    106.9845   1420.9861 -44.46     37.09608     0.881     0.534      5.283     73.16033  24.1267         72
 0.00  99.0000    106.4694    180.4571 -48.20      -100.93     0.503     0.495      0.000     73.12721  99.0000         73
 5.35  99.0000    114.2177    414.3000 -75.12    -26.88493     1.174     0.927      1.717     73.11893  99.0000         74
 0.00   6.3259    109.9821   1513.4705   1.43     12.56542     0.806     0.687      4.839     73.19344  25.3021         75
 3.50   0.2539    116.1276    989.3898 -72.21     313.0574     1.139     0.958      3.112     73.19344  21.8109         76
 4.15  99.0000    116.6369    152.4058  53.02    -47.28154     1.006     0.952      2.397     73.16861  99.0000         77
 5.52  99.0000    116.3723     65.2133   7.35    -22.35026     1.480     0.950      5.977     73.16861  99.0000         78
 3.50   0.0022    161.4548   1466.8241 -54.44     36294.82     1.934     1.900      5.426     73.19344  16.6504         79
 5.02   0.2458    125.2403    492.5927  -6.86      323.277     1.464     1.092      5.787     73.17689  21.7761         80
 8.11   0.5866    117.6457    911.6918 -47.04     135.3307     0.575     0.334      3.204     73.10236  22.7215         81
 4.68   0.3527    130.2387    416.2955 -27.12     225.0625     1.014     0.997      4.509     73.10236  22.1692         82
 0.00  99.0000    127.1574   1476.9080  43.78    -7.637218     0.822     0.651      0.000     73.09408  99.0000         83
 5.12   0.2307    128.0846    884.0657 -58.07     344.1644     0.780     0.779      3.568     73.10236  21.7081         84
 5.84   0.1876    141.3550    884.3093  52.16     423.2303     2.131     0.964      6.609     73.11065  21.4836         85
 8.30  99.0000    134.6447     97.6783 -46.36    -175.5667     0.581     0.330      2.278     73.12721  99.0000         86
 5.23   1.9889    145.7969    352.2505 -48.50     39.97396     1.407     1.153      4.170     73.20998  24.0456         87
 0.00 174.1199    138.1987   1599.6450 -72.96    0.3452672     0.752     0.444      4.510     55.35717  29.2046         88
 3.50   0.0097    169.2841    875.6372 -78.34     8188.287     1.768     1.723      5.248     73.15205  18.2670         89
 3.99   0.4601    150.7436   1278.8497  28.32     172.6659     1.078     1.029      4.255     73.15205  22.4570         90
 4.29   0.0934    164.2198   1444.2903  61.79     850.3947     1.450     1.305      5.518     73.15205  20.7259         91
 3.87   6.9860    154.5441     80.6298 -48.01     11.37698     1.066     0.917      3.845     73.18516  25.4099         92
 6.00   0.4411    155.1815   1578.5652   5.70     180.1478     0.898     0.727      3.319     73.16861  22.4109         93
 7.51   0.4450    154.5055    822.5117  46.03     178.3769     0.501     0.498      2.041     73.08579  22.4217         94
 3.50   0.2110    165.7383    102.5978 -37.77     376.7237     1.311     1.165      3.769     73.20998  21.6099         95
 4.87   0.2451    165.0086    574.7706  86.48     324.2273     1.251     0.963      5.099     73.16861  21.7729         96
 7.70   0.2454    165.8022   1054.6754 -60.40     323.9001     1.211     1.000      7.269     73.18516  21.7740         97
 8.26   0.3265    159.3821    491.2143  17.93     243.3484     0.756     0.448      3.861     73.16033  22.0844         98
 5.10  99.0000    164.3577   1196.5062  18.24   -0.2549935     0.945     0.817      4.458     73.09408  99.0000         99
 4.96   0.3181    167.8831    649.7219  36.86     249.6378     1.237     1.028      4.685     73.11893  22.0567        100
 5.03   0.1754    168.4620   1367.5079  -4.70     452.7886     1.259     0.968      5.166     73.13549  21.4103        101
 6.77   0.3122    174.8292   1198.9620 -74.73      254.557     1.100     0.850      5.851     73.17689  22.0355        102
 4.54   0.1489    179.3327    573.3319  24.33     533.0887     1.714     1.330      6.241     73.11065  21.2330        103
 5.66   0.2165    185.8885   1353.4348 -69.02     366.8831     1.580     1.377      6.483     73.14378  21.6387        104
 4.12   0.0809    191.7545   1349.0994  -8.69      981.424     1.394     1.366      5.001     73.07751  20.5704        105
 6.94   0.1643    189.5625   1026.0391  51.22     483.6673     1.298     1.107      7.785     73.19344  21.3386        106
 8.39  99.0000    182.3929     58.7790 -19.01    -48.82132     0.766     0.444      2.425     73.15205  99.0000        107
 3.61   0.0231    209.8589    826.0873  -7.87     3435.971     4.937     2.269     10.425     73.12721  19.2099        108
 3.95   0.0276    229.0334    560.6039 -26.64     2882.933     3.951     3.606     12.239     73.17689  19.4004        109
 7.27   0.2680    186.4370    834.3389  -8.75     296.5252     0.995     0.478      3.422     73.16861  21.8698        110
 5.73   0.3114    194.2279    266.1493  -2.74     255.2132     1.598     1.112      4.412     73.18516  22.0327        111
 3.50   0.0007    258.9285    995.8074 -39.84     117078.5     2.157     2.062      5.689     73.19344  15.3788        112
 5.33   0.0825    207.8602    348.2912  42.92      962.194     2.172     1.551      8.764     73.11893  20.5918        113
 3.50   0.0420    205.7459    547.4401  30.29     1890.125     1.440     1.435      4.674     73.15205  19.8588        114
 7.23   0.4144    193.8830   1158.3497  19.93     191.6333     0.901     0.693      5.313     73.12721  22.3438        115
 4.67   0.2935    202.5069    249.0628 -82.07     270.5595     1.245     1.125      5.338     73.12721  21.9693        116
 6.30   0.7076    195.0164    447.8040  -1.57     112.2411     0.905     0.757      3.154     73.13549  22.9246        117
 3.50   0.0500    211.3949   1304.6354 -22.74     1587.895     1.484     1.447      4.595     73.16861  20.0479        118
 3.50   0.0010    264.9597     65.7597 -32.49     81281.15     2.095     2.035      5.763     73.19344  15.7750        119
 4.14   0.1146    209.9293    683.1187 -66.62     692.7813     1.588     1.287      4.963     73.11065  20.9485        120
 5.97   0.2341    205.0531    940.3129  79.60     339.1879     0.730     0.683      4.073     73.11065  21.7239        121
 6.18   0.2265    204.7234    935.2993 -17.45     350.3786     1.044     0.660      4.895     73.08579  21.6887        122
 5.76  99.0000    204.9661    182.0299 -44.92    -6.507083     0.793     0.788      4.600     73.16861  99.0000        123
 6.06   0.0938    221.6865    344.0318  25.49     847.2104     2.076     1.969     10.273     73.16033  20.7300        124
 3.64   0.3489    208.3053   1224.1161  17.48     227.4688     1.017     0.915      3.268     73.06921  22.1577        125
 3.50   0.0410    223.2675   1224.5825 -89.29     1936.832     1.447     1.430      4.418     73.18516  19.8323        126
 6.36   0.3591    216.6158    881.3004 -56.94      221.155     1.809     0.740      5.508     73.13549  22.1883        127
 6.23   0.1663    216.7369    739.7720 -48.77       477.79     1.484     1.052      7.165     73.16861  21.3519        128
 3.50   0.0002    311.2113    437.7717 -43.93       333701     2.528     2.337      6.116     73.17689  14.2416        129
 3.50   0.1013    221.6353    773.3149 -28.64     784.5387     1.304     1.232      4.096     73.16033  20.8135        130
 7.25   0.4452    213.9205    791.8632 -44.17     178.3334     0.851     0.667      5.107     73.11065  22.4219        131
 8.64   0.2873    220.8395    373.6221  32.45     276.5688     1.683     0.981     10.097     73.17689  21.9455        132
 7.72   0.1868    226.6158    323.3230 -86.04     425.5413     1.792     0.855      6.942     73.18516  21.4776        133
 4.09   0.0715    243.0104    111.1028 -84.61     1110.768     2.358     1.744      7.281     73.12721  20.4359        134
 4.02   0.0232    254.5417    611.2194 -43.66     3424.785     2.738     2.260      7.957     73.18516  19.2134        135
 7.73  99.0000    220.6618   1401.3055  46.61    -1.648944     0.567     0.338      2.523     73.11893  99.0000        136
 6.32   0.2527    229.1916    546.3879 -64.50     314.2442     1.265     1.034      5.538     73.12721  21.8068        137
 4.00   0.1027    238.3424    837.3022  -9.76     773.0763     1.711     1.461      5.687     73.10236  20.8294        138
 0.00   0.9285    232.0458   1551.7197 -75.01     85.53036     0.719     0.670      0.000     73.12721  23.2197        139
 5.39   0.4189    238.9705   1477.4504 -68.12      189.752     1.289     0.924      4.420     73.18516  22.3545        140
 5.53   0.1263    251.0242   1371.4264  88.51     629.2501     1.875     1.660      7.626     73.16861  21.0529        141
 5.00   0.1432    249.4536    105.7782 -15.15     554.9217     1.367     1.268      6.098     73.18516  21.1894        142
 6.38   0.2917    247.8134   1412.9871  26.31     272.2741     1.222     0.976      5.088     73.14378  21.9625        143
 3.56   0.3491    252.4222   1351.3031 -18.77     227.4936     1.077     1.070      3.759     73.12721  22.1576        144
 4.93   0.3181    248.0549    561.1425 -45.10     249.6658     0.823     0.656      3.249     73.13549  22.0566        145
 5.40   1.3283    250.4485   1549.2814 -84.04     59.78707     0.998     0.957      4.201     73.12721  23.6085        146
 3.50   0.0041    286.7189   1484.9951 -39.03     19447.16     1.874     1.841      5.307     73.16033  17.3279        147
 6.17   0.6241    248.9496    149.9729  73.74     127.3508     0.793     0.788      4.756     73.18516  22.7875        148
 6.83   0.7852    252.4687    693.5012  40.35     101.1368     0.503     0.496      0.950     73.12721  23.0377        149
 3.50   0.0183    281.0660   1520.9102  76.99     4329.957     1.639     1.588      4.838     73.13549  18.9588        150
 6.41   0.2361    264.1126    722.8807 -57.13     336.2902     1.243     0.947      6.083     73.11065  21.7332        151
 3.50   0.0003    350.4285    889.1489 -49.01     296817.8     2.387     2.221      5.918     73.18516  14.3688        152
 3.50   0.0014    317.8304    903.7720 -63.35        56376     2.038     1.981      5.575     73.17689  16.1723        153
