#   1 KRON_RADIUS            Kron apertures in units of A or B                         
#   2 Y_IMAGE                Object position along y                                    [pixel]
#   3 MAG_BEST               Best of MAG_AUTO and MAG_ISOCOR                            [mag]
#   4 FLUX_BEST              Best of FLUX_AUTO and FLUX_ISOCOR                          [count]
#   5 X_IMAGE                Object position along x                                    [pixel]
#   6 THETA_IMAGE            Position angle (CCW/x)                                     [deg]
#   7 A_IMAGE                Profile RMS along major axis                               [pixel]
#   8 B_IMAGE                Profile RMS along minor axis                               [pixel]
#   9 MAGERR_BEST            RMS error for MAG_BEST                                     [mag]
#  10 NUMBER                 Running object number                                     
#  11 FLUXERR_BEST           RMS error for BEST flux                                    [count]
 6.25     26.4915  19.1150     3766.132   1647.0709  31.28     2.958     2.144   0.0504          1     174.6721
 3.96     17.9671  19.0818     3883.073   1941.9868 -85.15     1.624     1.497   0.0190          2     67.93871
 4.29     17.9107  21.3837     466.0569    169.1046  52.98     1.568     0.930   0.1328          3     56.97906
 7.50     11.2896  21.6647     359.7748   1582.3114 -63.62     1.081     0.557   0.1935          4     64.08714
 6.49      9.9056  21.4542     436.7494   1811.2614  37.19     0.987     0.828   0.1594          5     64.08714
 7.33      8.1942  22.0876     243.6975    335.6210 -73.24     0.769     0.451   0.2104          6     47.21867
 4.68      2.2750  19.9004     1826.966   1602.9838  -2.39     2.003     1.437   0.0424          7     71.30959
 6.07      5.0980  21.8175     312.5383   1016.7794 -76.94     1.206     0.652   0.1932          8     55.58912
 6.03      5.4326  21.8544        302.1     98.5942  34.34     0.994     0.682   0.1973          9     54.88095
 7.28      2.9920  21.4132     453.5393    698.1990  25.09     1.323     0.547   0.1452         10     60.63735
 6.06      2.0239  20.8810     740.5013    686.3784   8.77     1.675     0.905   0.0992         11     67.65022
 3.50      1.4289  22.4126      180.665    504.6548   8.22     0.914     0.482   0.1456         12     24.22266
 4.30     29.3350  19.4803     2690.257   1482.8679  87.24     1.591     1.408   0.0289         13     71.58334
 9.14     13.9950  21.8204     311.7072   1449.5017 -58.36     0.811     0.308   0.1797         14     51.57399
 3.50     25.2731  21.3008     503.0009    104.4232 -77.21     1.544     1.162   0.1114         15     51.57399
 8.88     19.5315  21.8462     304.3817    378.5100  42.18     0.504     0.495   0.1728         16     48.44533
 4.96     35.4471  20.8154     786.6057    929.8914 -65.09     1.305     1.100   0.0906         17     65.59528
 7.62     26.3016  22.7601      131.182    300.3286 -43.56     0.561     0.341   0.3063         18     37.00073
 3.50     41.5144  21.0118     656.4016    516.4299  87.36     1.323     1.105   0.0795         19     48.03992
 4.53     65.5800  19.5059     2627.625    550.0869 -71.58     2.760     1.700   0.0451         20     109.0468
 3.50     47.5405  19.2000       3482.7     77.3858  82.24     1.576     1.462   0.0184         21     59.00262
 7.17     37.0085  21.4236     449.2355   1448.8123  -6.94     0.922     0.760   0.1621         22     67.06952
 5.05     53.3535  19.9110     1809.295   1613.3472  58.80     1.528     1.447   0.0498         23      82.9722
 5.75     42.1951  22.7094     137.4534   1029.6289 -72.48     0.764     0.445   0.3006         24     38.04321
 4.41     74.8720  18.9580     4352.329    519.8821  84.94     2.812     2.179   0.0304         25     121.7575
 3.50     60.4509  19.7479     2102.618    139.9962 -20.24     1.853     1.703   0.0358         26     69.36315
 7.18     47.8447  21.7405     335.5238   1464.2684 -36.46     1.100     0.521   0.1952         27     60.31395
 4.71     61.5188  19.7243     2148.828   2039.9457  77.14     1.571     1.367   0.0385         28     76.08642
 6.95     49.1961  22.0767     246.1711    877.1786  42.98     0.781     0.567   0.2258         29     51.19336
 8.19     52.0031  22.3142     197.7987    821.5023 -57.59     0.788     0.317   0.2476         30     45.10015
 3.50     50.5002  22.7370     133.9946    513.0062 -32.35     0.790     0.316   0.1756         31     21.66541
 5.78     62.8848  21.3109     498.3535   2029.2487 -70.90     1.135     0.972   0.1474         32     67.65022
 7.11     62.4436  21.7249     340.3623   1616.8848 -62.57     1.110     0.590   0.2035         33     63.78124
 7.78     59.9742  22.3641     188.9202   1151.0000  90.00     0.859     0.289   0.2568         34     44.66439
 7.72     57.3105  22.3263      195.605    390.6775  44.37     0.563     0.341   0.2141         35     38.55388
 8.29     58.3510  21.7317     338.2556    746.8667  13.29     1.078     0.419   0.1988         36     61.91406
 6.73     64.5882  21.9611     273.8093    381.3265 -58.38     0.952     0.546   0.2148         37     54.16352
 6.94     68.6433  21.2134     545.1853    709.2628  24.68     1.244     0.863   0.1586         38      79.6038
 5.60     67.0388  21.7462     333.7565   1658.9302   1.05     1.038     0.728   0.1751         39     53.80122
 3.65     76.4685  20.7975     799.6901    936.5364  86.05     1.307     1.140   0.0674         40     49.64169
 6.69     87.3375  20.3036     1260.307   1332.3121  88.08     2.152     1.169   0.1014         41     117.6733
 7.78     71.8084  22.1253     235.3815    953.6157  72.24     0.765     0.448   0.2344         42     50.80989
 3.50     85.2820  20.7260     854.0909   1025.9706  74.15     1.594     1.492   0.0763         43      59.9888
 5.74     94.5491  20.4414     1110.036   1697.9368  88.25     1.885     1.293   0.0647         44     66.13701
 6.46     80.7115  21.2265     538.6653   1872.5619 -79.38     1.196     0.938   0.1524         45     75.57057
 3.50    101.9015  17.3783     18645.99    453.6153  87.46     1.833     1.688   0.0040         46     68.79691
 3.50    148.7343  15.9376     70283.63   1480.0895 -83.03     2.001     1.900   0.0012         47     75.31133
 7.71     81.4649  21.2844     510.6898   2019.2091 -47.33     1.078     0.731   0.1618         48     76.08642
 3.50    102.6751  17.5680     15657.05   1008.8705  86.86     1.755     1.692   0.0046         49     66.77728
 5.15    101.1270  19.6645     2270.364   1342.6067 -76.73     1.871     1.542   0.0467         50     97.69474
 4.42    103.2826  19.7341     2129.515   1701.8820  83.80     1.653     1.391   0.0377         51     74.00146
 7.00     92.7015  21.0370     641.3398   1175.3208  73.37     1.211     0.872   0.1340         52     79.11089
 5.42     96.2809  20.4238     1128.229   1637.3967  62.02     1.345     1.180   0.0730         53     75.82893
 6.46     93.5461  21.6955     349.7195    795.1349  51.77     1.104     0.729   0.1990         54     64.08714
 6.87     89.4943  22.9315     112.0194    308.5026 -44.87     0.503     0.497   0.3430         55     35.37946
 6.98     96.4171  21.5444     401.9331    408.7786  49.73     1.077     0.724   0.1836         56     67.93871
 7.03     95.7691  22.1181     236.9509    157.5854  71.57     0.722     0.460   0.2047         57     44.66439
 6.43    105.8248  20.9753     678.8473    441.9948  87.54     1.322     1.140   0.1404         58     87.78279
 6.19    104.3940  21.4175     451.7448   1955.8345 -57.92     1.037     0.791   0.1504         59     62.54265
 4.00    122.5991  19.0670     3936.298   1258.1428  89.34     1.709     1.507   0.0197         60     71.30959
 3.50    139.1314  17.4510     17439.12   1577.8752  86.54     1.868     1.766   0.0044         61     70.48199
 4.17    104.6764  23.0923     96.60278   1808.6515 -43.96     0.580     0.332   0.2436         62     21.66541
 7.55    109.1227  21.9225     283.7356   1500.8584 -50.59     0.765     0.568   0.2114         63     55.23617
 3.50    140.2114  17.4144     18036.74    771.8448  84.55     1.866     1.730   0.0042         64     69.64455
 3.50    128.0072  18.4516     6938.548   1863.1251  69.10     1.697     1.600   0.0099         65     63.47386
 7.97    107.6953  22.2140     216.9158   1888.3314  43.62     0.564     0.340   0.1980         66     39.55544
 5.85    120.0791  21.2193     542.2333   1506.5341 -27.89     1.290     1.159   0.1570         67     78.36572
 4.53    130.1362  20.4963     1055.361   1373.3097  48.17     1.390     1.349   0.0711         68     69.08061
 5.31    117.6470  22.9259      112.604   1720.6884 -46.80     0.576     0.333   0.2559         69      26.5346
 6.14    123.5470  21.0340     643.1708   1186.0841  16.69     1.177     0.962   0.1241         70     73.47098
 8.19    118.7465  22.1814     223.5409    244.0071   0.36     0.691     0.435   0.2412         71     49.64169
 4.39    140.8358  19.8541     1906.599    363.8372  47.35     2.385     1.428   0.0509         72     89.32877
 8.54    123.2028  21.1015     604.3568    763.6558  -8.03     0.890     0.771   0.1404         73     78.11575
 7.10    128.7347  21.4899     422.6133    889.9673  63.85     1.318     0.542   0.1716         74     66.77728
 5.06    129.6417  21.2735      515.838    988.0619  63.38     1.221     0.957   0.1290         75     61.27903
 7.94    128.0233  22.0416     254.2548   1742.9845 -45.46     0.848     0.503   0.2463         76     57.66147
 5.21    141.5693  20.3170     1244.842   1797.5446  66.41     1.358     1.235   0.0652         77     74.79013
 3.95    138.6451  21.3799     467.6757     85.3038  78.47     1.081     0.945   0.1017         78     43.77985
 7.62    139.8244  20.7847     809.1431    721.2741 -34.85     1.341     1.005   0.1314         79     97.89473
 3.50    161.3777  17.8035     12603.63    452.7217  45.91     1.868     1.781   0.0061         80     70.48199
 6.02    145.6904  20.8559     757.7925    345.6674  58.25     1.877     1.012   0.1329         81     92.76574
 8.95    135.5075  21.9293     281.9487   1759.5105  45.15     0.505     0.495   0.1866         82     48.44533
 6.02    148.4376  20.3611     1195.238     40.6581 -34.09     1.567     1.389   0.0897         83     98.69064
 6.60    143.5631  21.6605     361.1583   1905.9727 -62.06     1.050     0.656   0.1784         84     59.33317
 5.58    157.4684  19.8395     1932.457    597.8142 -14.45     1.973     1.692   0.0636         85     113.0968
 6.20    146.4538  22.4620     172.6334    557.4737 -41.93     0.505     0.492   0.2226         86     35.37946
 5.84    171.3877  19.9601     1729.355    550.9597 -74.58     2.246     1.712   0.0798         87     127.1017
 6.65    151.4915  22.8038     126.0103   1608.4930 -44.87     0.503     0.497   0.3049         88     35.37946
 3.50    194.5666  15.7771     81479.51    350.0078 -89.90     1.969     1.868   0.0010         89     74.79013
 3.50    171.5577  19.9904     1681.644    259.4762  80.69     1.765     1.629   0.0431         90     66.77728
 4.78    168.3275  20.1512     1450.242   1991.0076 -81.20     1.441     1.293   0.0546         91     72.93664
 3.62    169.7038  19.8015     2001.189   1020.8877 -89.80     1.509     1.390   0.0317         92      58.3359
 6.85    154.4826  22.5521     158.8774    534.4924  44.82     0.519     0.480   0.2456         93     35.92802
 7.84    155.3536  22.5702     156.2598    851.6857  46.68     0.577     0.333   0.2679         94     38.55388
 8.57    156.4276  21.3502     480.6617   1615.2836  -8.48     1.000     0.477   0.1482         95     65.59528
 6.50    158.3238  23.0658      98.9845   1143.6704  44.73     0.572     0.336   0.3566         96     32.49812
 5.32    166.9695  22.0817     245.0276    341.9099 -63.98     1.172     0.573   0.2111         97     47.63106
 5.62    171.2967  21.8091      314.978    693.7338  45.54     0.938     0.759   0.1830         98      53.0692
 4.98    185.1148  19.4565     2749.865    766.3348  -5.96     2.031     1.657   0.0403         99      102.004
 5.89    176.4241  21.5047     416.8896   1020.2969  41.55     1.532     0.686   0.1747        100     67.06952
 6.13    173.5358  21.7563      330.674    232.2538  89.35     1.000     0.714   0.1883        101     57.32129
 6.20    177.0514  21.4869     423.7858   1182.7476  32.81     0.999     0.834   0.1619        102     63.16498
 5.72    189.9656  20.5690     986.9438     38.7123 -80.88     1.456     1.236   0.0941        103     85.52579
 3.52    192.9014  20.7562     830.6431    458.7516  87.86     1.332     1.166   0.0628        104     48.03992
 4.72    188.6646  21.2737     515.7229    969.2155  73.59     1.196     1.173   0.1310        105     62.22915
 5.74    195.4731  20.4538     1097.423     18.0553  79.35     1.654     1.399   0.0951        106     96.07984
 5.98    184.8692  22.1155     237.5168    573.8565 -46.95     0.838     0.658   0.2270        107     49.64169
 5.82    190.7688  21.6051     380.0828   1178.7527  52.42     1.168     0.864   0.1849        108     64.69462
 6.41    185.7716  22.4770     170.2637   1295.6082  70.78     0.750     0.446   0.2554        109     40.04684
 8.05    184.6664  21.6796     354.8571   1879.5098   1.53     0.910     0.471   0.1796        110      58.6702
 4.58    203.2450  19.8175     1972.051   1677.5028 -73.55     1.737     1.529   0.0456        111     82.73615
 4.08    198.9632  20.5026     1049.193    473.9245  34.76     1.386     1.360   0.0641        112     61.91406
 4.27    199.0839  20.2502      1323.83    279.8327  70.20     1.591     1.455   0.0594        113     72.39835
 5.44    205.0399  20.2650     1305.933    900.6860  74.51     1.778     1.333   0.0773        114     92.97633
 6.95    189.5069  22.7666     130.4022   2017.4886 -45.46     0.502     0.497   0.2946        115     35.37946
 6.55    196.4421  21.6251     373.1333    987.6069 -62.13     1.096     0.733   0.1909        116     65.59528
 7.40    198.5416  21.7813     323.1287   1538.9827 -63.58     1.207     0.494   0.2123        117     63.16498
 6.54    210.4055  21.0735     620.1381   1480.1700  61.30     1.635     0.838   0.1494        118      85.2968
 6.85    207.9072  21.2910     507.5897    985.0367 -35.57     1.506     0.721   0.1703        119      79.6038
 4.58    218.4570  19.9601     1729.355   1745.4019  66.54     1.722     1.285   0.0473        120     75.31133
 7.96    203.6808  23.6070     60.13452    410.3252  44.71     0.568     0.338   0.7054        121     39.05787
 3.61    212.1023  21.5125     413.8955    259.5743  28.45     1.337     1.037   0.1217        122     46.38287
 8.43    205.5728  21.4952      420.547   1047.3317   8.95     1.015     0.475   0.1678        123     64.99623
 8.03    211.3858  21.6804     354.6226   2037.5996 -18.63     0.870     0.693   0.2141        124      69.9248
 7.81    210.5213  22.0910     242.9432    646.9507 -33.14     0.769     0.323   0.1937        125     43.33082
 4.44    213.5035  22.2835     203.4697    736.4744  -0.77     1.081     0.500   0.1946        126     36.46832
 4.30    232.9903  19.7714     2057.625   1632.4784  85.80     1.647     1.398   0.0381        127      72.1277
 7.14    219.0452  21.9313     281.4391   1975.5122   0.56     1.149     0.696   0.1554        128     40.28062
 5.92    218.7178  21.8393     306.3413   1970.3451  15.88     1.295     0.671   0.1530        129     43.16738
 7.35    218.6345  22.6161     149.7914   1864.2554  51.30     0.554     0.340   0.2525        130     34.82227
 9.26    218.4885  22.1993     219.8723   1021.5324  48.23     0.503     0.495   0.2547        131     51.57399
 7.87    216.0000  22.4751     170.5482   1443.0039   0.00     0.853     0.289   0.2899        132     45.53173
 8.29    221.5044  21.7189     342.2549   1089.0135   3.24     0.793     0.499   0.1840        133     57.99967
 5.23    235.9377  20.1221     1489.532   1777.6477  69.92     1.408     1.371   0.0584        134     80.09367
 6.15    231.0277  21.1002     605.0815    930.2176 -29.13     1.168     1.065   0.1366        135     76.08642
 4.95    224.6997  22.9279     112.3898    771.6817 -43.97     0.556     0.343   0.2093        136     21.66541
 3.60    236.1112  22.2212     215.4966    156.7184  19.97     0.946     0.678   0.1576        137     31.27132
 7.44    234.5418  22.3942      183.751     40.5127  43.08     0.511     0.487   0.2480        138     41.95488
 6.60    245.7288  20.8309     775.4189   1267.8284  59.91     1.266     1.176   0.1248        139     89.10956
 7.30    240.4376  21.2482     528.0155   1881.8417  50.60     1.054     0.724   0.1461        140      71.0348
 8.41    235.6922  21.8776     295.7209   1664.1674  11.92     1.083     0.413   0.2297        141     62.54265
 3.50    255.0190  20.2638     1307.381     14.0959  89.34     1.824     1.495   0.0537        142     64.69462
 3.50    275.4456  17.3282     19526.53   1749.8987  79.79     1.846     1.743   0.0039        143     69.64455
 8.23    250.0212  22.2153     216.6613    945.0000  90.00     0.857     0.289   0.2325        144     46.38287
 6.19    255.7283  21.7929     319.6985    195.9624  -1.84     1.098     0.874   0.2278        145     67.06952
 4.39    261.4212  20.5146     1037.724     54.8488  12.51     1.338     1.252   0.0655        146     62.54265
 7.92    255.3253  22.5784     155.0748   1048.3064 -46.00     0.562     0.341   0.2735        147     39.05787
 4.31    270.0767  20.4428     1108.611   1847.9153  64.30     1.416     1.399   0.0660        148      67.3605
 3.50    289.1194  17.1060     23961.75   1858.7313 -71.95     1.877     1.782   0.0032        149     71.30959
 5.82    259.2979  22.9459      110.546   1632.6465  42.37     0.570     0.336   0.2748        150     27.96992
 7.02    269.1446  21.0089     658.2091    854.7265 -49.54     1.327     1.011   0.1488        151     90.20029
 3.50    269.7971  22.0945     242.1593    187.0305 -83.08     0.927     0.754   0.1457        152     32.49812
 7.61    264.4965  22.3371     193.6699   1366.5050 -45.05     0.503     0.497   0.2430        153     43.33082
 7.11    264.2191  22.4181     179.7415    961.9812   0.74     0.699     0.414   0.2507        154      41.4861
 8.19    264.3419  22.2316      213.433    124.6783  45.89     0.576     0.334   0.2062        155     40.53227
 3.50    296.0280  17.0498     25233.48    562.3620  81.70     1.855     1.763   0.0030        156     70.48199
 6.85    270.3398  21.3728     470.7351    741.9490  29.71     1.288     0.772   0.1743        157     75.57057
 6.68    265.5971  22.4826     169.3813    470.1956 -19.40     0.746     0.449   0.2749        158     42.87708
 7.64    269.6665  22.6042     151.4351    496.3147  45.90     0.569     0.338   0.2691        159     37.52559
 3.50    295.4152  18.0014     10503.36   1786.3577 -69.97     1.765     1.671   0.0069        160     67.06952
 6.25    281.6823  20.7482     836.7849    489.6555 -52.94     1.500     1.301   0.1255        161     96.68859
 3.50    335.8639  14.9587     173153.8   1873.6226 -79.28     2.105     1.966   0.0005        162     80.09367
 3.50    300.3802  20.4125     1140.055    162.4500 -89.46     1.426     1.269   0.0491        163     51.57399
 8.78    292.9638  21.1701     567.3474    636.4266  27.01     1.225     0.494   0.1456        164     76.08642
 7.13    311.1205  20.3878     1166.188    723.4673  73.20     2.202     0.934   0.1060        165     113.7864
 9.19    293.4990  21.8267     309.9073   1568.5303  50.66     0.502     0.497   0.1807        166     51.57399
 7.59    304.1981  20.8636     752.4158    909.0809  41.89     1.272     0.977   0.1360        167        94.23
 3.55    302.4635  23.0113      104.087   1209.5211 -41.84     0.503     0.495   0.2260        168     21.66541
 7.32    305.9908  22.3771     186.6718   1520.2551  89.51     0.682     0.436   0.2521        169     43.33082
