#   1 NUMBER                 Running object number                                     
#   2 FLUX_BEST              Best of FLUX_AUTO and FLUX_ISOCOR                          [count]
#   3 FLUXERR_BEST           RMS error for BEST flux                                    [count]
#   4 MAG_BEST               Best of MAG_AUTO and MAG_ISOCOR                            [mag]
#   5 MAGERR_BEST            RMS error for MAG_BEST                                     [mag]
#   6 KRON_RADIUS            Kron apertures in units of A or B                         
#   7 X_IMAGE                Object position along x                                    [pixel]
#   8 Y_IMAGE                Object position along y                                    [pixel]
#   9 A_IMAGE                Profile RMS along major axis                               [pixel]
#  10 B_IMAGE                Profile RMS along minor axis                               [pixel]
#  11 THETA_IMAGE            Position angle (CCW/x)                                     [deg]
         1       958712     171.5191  13.1006   0.0002  3.50   1107.5574    183.5872     5.235     4.880 -24.92
         2      43933.5     202.1742  16.4478   0.0050  4.07     63.6141     54.7853     5.365     4.865  10.86
         3     5972.606     116.9392  18.6144   0.0213  4.05    984.9714     18.2255     4.233     2.082 -89.63
         4     3777.646     71.40068  19.1117   0.0205  4.10     91.2174     19.4714     1.811     1.786 -50.22
         5     9909.256     68.39749  18.0647   0.0075  3.50   1445.6405     16.2575     2.069     1.951  10.92
         6     313.1227     51.37114  21.8155   0.1782  5.88    145.2244      5.8206     1.171     0.700  -0.38
         7     46280.12     80.29659  16.3913   0.0019  3.50   1078.3888     61.4053     2.432     2.332  59.86
         8     134.1003     39.48931  22.7362   0.3198  7.12   1183.2153     11.4046     0.760     0.448  19.10
         9     415.5513     54.76182  21.5082   0.1431  5.38    384.3959     19.2027     1.234     0.891  18.99
        10     1061.489     83.05042  20.4900   0.0850  6.15    366.8643     26.2155     1.520     1.276  22.58
        11     511.7942     74.28255  21.2820   0.1576  8.12    382.6800     25.4832     1.089     0.824  34.63
        12     510.9773     69.91521  21.2838   0.1486  6.45   1110.6578     36.5190     1.297     0.966 -49.38
        13     657.9388       86.239  21.0093   0.1423  6.19    326.7798     34.8941     1.759     1.173  -6.17
        14     44838.84     80.29659  16.4256   0.0019  3.50    537.4344     81.5319     2.423     2.339 -10.68
        15     241.9064     51.37114  22.0957   0.2306  6.57   1170.5585     40.7102     1.270     0.507  40.85
        16      198.442     40.97999  22.3107   0.2243  5.84   1521.2733     40.0144     0.741     0.661  85.98
        17      312.933     54.21144  21.8162   0.1881  5.96    915.1636     44.3193     1.037     0.830 -57.46
        18     265.6788      37.9401  21.9939   0.1551  8.83    440.3448     45.6943     0.570     0.337  43.15
        19     1613.629     61.46999  20.0353   0.0414  3.86    128.1458     76.6940     1.719     1.565 -36.54
        20     1514.785     118.5944  20.1039   0.0850  6.41    376.7003     91.3006     2.278     1.590  59.94
        21     468.6173     71.19037  21.3777   0.1650  5.67    421.1942     84.3876     1.543     1.097 -71.73
        22     66623.95     82.68854  15.9957   0.0013  3.50    788.9817    123.3941     2.490     2.407   1.93
        23     2446.264      72.2358  19.5835   0.0321  4.29     56.0174     98.1544     1.876     1.626  -2.93
        24     739.7351      80.6692  20.8821   0.1184  6.17    452.8300     99.8754     1.469     1.252  11.31
        25     252.5361     45.81702  22.0490   0.1970  5.78    495.7601     92.9686     0.890     0.757  -1.84
        26     256.7535     46.46695  22.0310   0.1965  8.06   1075.7946     97.6176     0.767     0.445  18.16
        27     276.5106     54.48732  21.9505   0.2140  7.50    990.2148    118.7651     0.770     0.712  56.09
        28     286860.5     92.28626  14.4106   0.0003  3.50    317.9610    195.1572     2.782     2.657 -41.25
        29     37439.93     76.86188  16.6214   0.0022  3.50   1468.2515    163.8908     2.301     2.243 -11.43
        30     203.4232     46.14313  22.2838   0.2463  8.09    418.1811    132.3931     0.751     0.447  19.00
        31     8442.417     73.67449  18.2386   0.0095  3.64    877.2230    171.7732     2.117     2.046 -67.73
        32     47245.53     241.3251  16.3689   0.0055  4.14    403.5941    236.5317     6.506     5.518 -41.84
        33     153.3187     36.73534  22.5908   0.2602  6.41    353.9936    148.9917     0.620     0.600 -89.87
        34      130.506     27.92316  22.7657   0.2324  5.04   1280.5729    152.7571     0.724     0.458  70.56
        35     653.0602     49.28564  21.0174   0.0820  3.57    104.0227    167.9652     1.477     1.352 -78.60
        36     1053.485     88.13081  20.4982   0.0909  6.30   1445.8739    166.7165     1.482     1.386  25.89
        37     1425.562     82.86967  20.1698   0.0631  5.49    325.4615    173.1771     1.587     1.503  16.30
        38     115.5385     30.97796  22.8980   0.2912  6.55    634.5322    161.5322     0.509     0.489  45.00
        39      371.952     58.98029  21.6286   0.1722  6.45   1368.4978    170.4766     0.962     0.894   1.76
        40     143.8945     35.90973  22.6597   0.2710  6.49    651.2307    170.4273     0.769     0.448  19.56
        41     621.1864     86.93169  21.0717   0.1520  7.88    575.0485    181.2506     1.588     0.819  33.93
        42     1106.571     72.85587  20.4448   0.0715  5.32   1350.5676    194.2067     1.471     1.371 -61.81
        43     469.0336     60.48641  21.3768   0.1401  6.62   1354.9641    188.1914     1.032     0.844  38.79
        44     5065.552     138.2126  18.7932   0.0296  4.60    827.3505    212.4507     4.311     2.212 -12.74
        45     1983.844     76.66655  19.8110   0.0420  4.85    548.9967    208.1533     1.728     1.561 -56.60
        46      123.072     29.49014  22.8294   0.2602  5.72    268.7589    196.9942     0.669     0.428 -89.70
        47     921.8735     73.06138  20.6431   0.0861  4.64    349.6559    210.1383     1.790     1.474  53.37
        48     1648.584     54.21144  20.0120   0.0357  3.50   1306.0121    213.7668     1.673     1.542  -5.52
        49     5090.757     180.3818  18.7878   0.0385  5.57    561.9375    231.9906     3.530     3.154 -29.90
        50      85405.7      85.1894  15.7261   0.0011  3.50     67.5887    267.4318     2.519     2.455   4.04
        51     283.1819     58.98029  21.9246   0.2262  6.26    250.8450    205.3241     1.499     0.627  36.23
        52     667.1906     76.27439  20.9942   0.1242  5.22    684.2392    212.3623     1.589     1.414 -21.56
        53     121913.6     84.30475  15.3397   0.0008  3.50    997.3770    261.3211     2.487     2.473  -5.15
        54     1858.562     55.57718  19.8818   0.0325  3.62   1226.0276    225.6275     1.638     1.513  56.38
        55     2158.247     126.7828  19.7195   0.0638  8.63   1122.9299    224.0614     1.885     1.218  71.23
        56     743.6832     81.59328  20.8763   0.1192  5.20    345.2687    223.4958     1.862     1.400  38.99
        57     769.0786     64.56323  20.8399   0.0912  4.84    774.7049    224.2253     1.485     1.274 -64.77
        58     1622.848     106.1871  20.0291   0.0711  5.40    112.9577    245.7517     2.269     1.821 -84.19
        59     4263.531     114.9998  18.9804   0.0293  4.76    612.8062    256.8083     2.763     2.241 -31.38
        60      868.422     98.87504  20.7080   0.1236  6.68    838.1740    240.4640     1.587     1.461   3.11
        61     792.9875     83.41072  20.8066   0.1142  6.57   1372.6572    253.3820     1.676     1.007 -77.44
        62     351672.1     91.14183  14.1894   0.0003  3.50    439.4230    313.6555     2.726     2.645 -29.46
        63     392.1851     49.99508  21.5711   0.1384  7.15    107.6562    251.7136     1.286     0.961 -47.45
        64     225.1644      47.1079  22.1735   0.2272  7.46   1352.0001    254.2400     0.825     0.505  52.98
        65     19942.21     74.08041  17.3053   0.0040  3.50   1486.3666    289.1064     2.197     2.143  -0.24
        66     4374.009     67.06926  18.9526   0.0167  3.69   1522.2140    283.4656     1.863     1.834  34.16
        67     201.4993     39.86721  22.2941   0.2149  8.03    123.0000    266.9816     0.858     0.289  90.00
        68     440.8799     68.39749  21.4440   0.1685  6.59   1273.7917    272.2896     1.215     0.927   3.52
        69     14721.33     74.08041  17.6349   0.0055  3.50    201.6470    304.5827     2.214     2.163   7.61
        70     311890.5     91.14183  14.3198   0.0003  3.50    890.7000    352.8533     2.708     2.638 -41.09
        71     58273.14     79.73441  16.1411   0.0015  3.50    905.3373    320.2001     2.371     2.336  17.94
        72     1549.548      60.7338  20.0793   0.0426  3.50    515.0054    291.1290     1.867     1.704  -4.76
        73       300522      90.8122  14.3601   0.0003  3.50   1345.7853    352.8833     2.672     2.630 -27.88
        74     1856.805     61.71344  19.8829   0.0361  3.89   1327.5559    295.5385     1.682     1.633  16.46
        75     884.5861     52.15097  20.6879   0.0640  5.59   1475.5228    294.7319     1.490     1.410 -32.70
        76     1332.194     112.0947  20.2434   0.0914  5.89   1413.5488    298.9774     2.281     1.700 -31.73
        77     9862.407     70.97943  18.0698   0.0078  3.50    697.2145    323.5643     2.098     2.084  48.90
        78     722.2278     61.22557  20.9081   0.0921  4.10    563.4363    303.5893     1.634     1.445 -14.17
        79     192.0378     35.90973  22.3463   0.2031  8.31    247.3226    294.2922     0.554     0.344 -43.23
        80     1009.769     94.53356  20.5442   0.1017  5.61    641.3190    322.5241     1.952     1.535  77.61
        81     438.6527       60.238  21.4495   0.1491  8.04     85.7015    310.1534     1.131     0.517 -35.38
        82     2004.017     91.47028  19.8000   0.0496  5.15    595.4161    328.8730     1.940     1.713 -35.23
        83     6943.085     87.44762  18.4509   0.0137  4.20    867.0420    347.9107     2.264     2.015  25.16
        84     417.1154     62.43808  21.5041   0.1626  6.23   1545.8273    331.3643     1.283     0.835  52.86
        85     188.5988      37.9401  22.3659   0.2185  5.89    955.5109    326.3526     0.926     0.478   0.07
        86     460.5061     57.17302  21.3967   0.1348  6.09     93.5791    333.6950     0.971     0.940  55.69
        87     342.5399      51.6622  21.7180   0.1638  5.78   1439.6562    336.5270     1.042     0.821 -34.70
        88     4909.606     71.81945  18.8272   0.0159  3.69    431.7284    357.2689     2.062     1.955 -73.63
        89     866.0796     68.39749  20.7109   0.0858  5.25     54.6837    351.3244     1.405     1.282  61.37
        90     10045.83     74.08041  18.0498   0.0080  3.71    760.9843    369.6347     2.101     2.028  22.47
        91     49399.87     80.48311  16.3205   0.0018  3.50    231.3483    396.6438     2.424     2.344 -28.26
        92     2010.221     82.86967  19.7967   0.0448  4.89   1500.1429    362.7214     1.894     1.593   0.84
        93     3601.829     61.46999  19.1635   0.0185  3.54    442.7167    368.9449     1.817     1.730  23.76
        94     534.0375     70.76787  21.2359   0.1439  6.61   1033.3591    362.1609     1.241     0.996 -58.97
        95     207.0688     44.82448  22.2645   0.2351  5.00    533.3430    361.2872     1.219     0.716  -8.77
        96       343.99     57.17302  21.7134   0.1805  7.19   1415.9182    364.6555     0.961     0.690 -70.00
        97     709.9421     66.69587  20.9267   0.1020  6.32    753.3804    376.5251     2.021     1.175  45.42
        98     472.9077     70.12935  21.3678   0.1610  5.75   1083.9891    375.3518     1.453     1.092 -64.08
        99      474.899     54.21144  21.3633   0.1240  5.86      1.5932    381.5696     2.024     0.637 -89.37
       100     681.7281     71.40068  20.9708   0.1137  6.06    992.6714    374.2666     1.283     1.155  16.70
       101     359.3328     59.98857  21.6660   0.1813  6.92     72.0737    371.3849     1.328     0.618  -4.98
       102     200.2417     43.80946  22.3009   0.2376  7.71    209.7980    370.4338     0.757     0.448 -20.40
       103     7723.608     67.29245  18.3352   0.0095  3.50    354.4694    399.6199     2.028     1.927  17.69
       104     6868.291     65.48561  18.4627   0.0104  3.50   1461.0906    398.5513     1.985     1.894  -9.16
       105     286.6378     53.93414  21.9114   0.2043  5.48     67.2584    384.9274     1.574     0.663  84.64
       106     118.3723     30.49009  22.8717   0.2797  5.96     87.0265    376.7703     0.694     0.420   1.14
       107     44973.86       78.407  16.4224   0.0019  3.50    433.2188    421.0826     2.332     2.293   2.48
       108     386.0757     57.69516  21.5881   0.1623  6.76    125.8206    382.1244     0.976     0.759 -25.56
       109     1598.557     62.19747  20.0455   0.0423  4.03   1088.6277    395.3357     1.645     1.542  16.80
       110     21582.24     74.28255  17.2195   0.0037  3.50    837.3096    417.0440     2.185     2.170  10.22
       111     738.2087     86.58604  20.8843   0.1274  7.52    626.6414    397.2802     1.368     1.024 -84.28
       112     106.8601     26.26285  22.9827   0.2669  5.78   1196.0000    390.9907     0.849     0.289  90.00
       113     1096.827     76.66655  20.4544   0.0759  6.11      1.9529    413.6238     2.734     0.909  88.05
       114     252.7413     45.48858  22.0481   0.1955  4.90    977.6585    397.7170     1.233     0.712 -45.77
       115     594.9984     81.95998  21.1185   0.1496  7.33    526.4940    405.2974     1.299     1.026  83.57
       116     140815.2     85.89056  15.1832   0.0007  3.50    807.5491    462.6601     2.554     2.475 -14.20
       117      3657.54     60.98018  19.1468   0.0181  3.50    926.3489    425.5665     1.842     1.791  46.72
       118     15991.42     74.08041  17.5451   0.0050  3.50    252.0300    439.4121     2.198     2.152   6.63
       119     324.4181     58.98029  21.7770   0.1974  6.39    281.9646    408.1781     1.164     0.805  29.19
       120     122.4888     31.93135  22.8345   0.2831  5.62    943.7681    403.4152     0.745     0.452 -19.28
       121     986.0686     88.97742  20.5700   0.0980  5.73    159.3221    422.2335     1.823     1.388  51.63
       122     300.9084     62.67777  21.8587   0.2262  7.68    299.5127    426.9838     1.409     0.499  88.57
       123     278.5599      50.4879  21.9425   0.1968  7.33   1204.3013    419.4578     1.015     0.481  -8.30
       124      579.218     80.29659  21.1477   0.1506  7.02   1179.8237    428.1476     1.268     1.091  43.93
       125     1331.782      72.2358  20.2437   0.0589  5.03   1421.9890    434.3694     1.563     1.401 -10.91
       126     343.5237     47.74025  21.7149   0.1509  8.46    133.4180    424.2213     0.751     0.455  71.45
       127     157.1055     36.32488  22.5643   0.2511  5.94   1580.9537    421.4902     0.778     0.499   2.69
       128     224.1688     35.48972  22.1783   0.1719  8.25    136.3273    421.6680     0.574     0.335  45.21
       129     145.8846     36.32488  22.6448   0.2704  7.28   1063.4724    425.5192     0.503     0.496  46.62
       130     465.1128       60.238  21.3859   0.1407  8.39    718.8471    431.2661     1.078     0.508  67.24
       131      8169.15     195.2318  18.2743   0.0260  4.91    850.2258    469.1449     7.532     2.223  21.77
       132     5443.372       78.407  18.7151   0.0156  4.03     21.3153    451.8586     2.088     1.943  -0.20
       133     665.4058     69.05202  20.9971   0.1127  5.98    151.0912    435.1284     1.240     1.134  52.00
       134     624.3286     66.62063  21.0662   0.1159  5.34    305.5745    441.5390     1.441     1.138 -51.09
       135     959.5898     75.08562  20.5996   0.0850  5.43    122.1028    446.8850     1.505     1.355  85.16
       136     80.51379     27.38091  23.2901   0.3693  6.19    353.6779    435.6658     0.573     0.336 -45.55
       137     5676.193     73.47069  18.6696   0.0141  3.93     34.4913    459.3049     1.983     1.870 -43.25
       138      836.313     85.01321  20.7489   0.1104  5.27    883.4819    448.5699     2.147     1.280   7.79
       139     285.4187     55.84632  21.9161   0.2125  8.31    654.3727    445.0175     1.075     0.452 -25.27
       140      1738.22     58.98029  19.9545   0.0368  3.72    468.4330    465.1295     1.736     1.538  46.31
       141     306.4323     45.15775  21.8389   0.1600  5.43   1533.5862    454.5111     0.992     0.775   2.58
       142     590.0736     45.15775  21.1275   0.0831  3.81   1096.4277    462.4622     1.423     1.022  13.23
       143     87.64478     27.92316  23.1980   0.3460  6.24   1224.3202    454.6659     0.572     0.336  45.64
       144     2202.629     68.39749  19.6974   0.0337  4.18    734.7418    473.5637     1.675     1.672 -32.10
       145     347.7919     60.48641  21.7015   0.1889  7.76    723.9955    463.4885     1.225     0.497 -62.96
       146     1512.896     63.62748  20.1053   0.0457  4.23    254.3179    473.0175     1.614     1.461   2.68
       147      2788.92     57.95446  19.4412   0.0226  3.50    922.8689    479.3951     1.738     1.689  50.12
       148     1169.572     64.79506  20.3847   0.0602  4.25   1276.8654    479.2148     1.668     1.470  88.29
       149     164.7476     41.70536  22.5127   0.2749  6.15   1198.3262    468.1648     0.748     0.647 -25.50
       150     106.7286     35.48972  22.9841   0.3611  8.21    561.6643    466.6413     0.589     0.326 -45.84
       151      21464.1     177.0256  17.2255   0.0090  4.30    518.4934    534.3708     4.541     3.949  33.99
       152     760.6414       86.239  20.8518   0.1231  5.41    839.4063    489.4281     2.624     1.021 -82.78
       153     2581.284     122.0832  19.5252   0.0514  5.00     82.7204    497.6219     2.586     2.443 -14.39
       154     2282.215     109.9336  19.6589   0.0523  4.50   1186.5588    497.1445     2.872     2.197 -19.25
       155     254.2489     45.15775  22.0416   0.1929  5.27   1167.6362    477.6234     1.409     0.553 -32.52
       156      1189.07     49.58894  20.3668   0.0453  3.50   1070.7618    485.5692     1.528     1.376 -13.26
       157      161.072     23.87012  22.5372   0.1609  3.50    682.8082    480.6513     0.846     0.613 -28.81
       158     139.0078     30.49009  22.6972   0.2382  5.97   1309.2524    483.2269     0.842     0.349  17.63
       159     11765.21      72.2358  17.8783   0.0067  3.50   1302.1998    513.8845     2.242     2.029 -12.26
       160      139.139     33.75745  22.6962   0.2635  7.02    424.4973    490.9982     0.783     0.319  57.39
       161     1204.784     84.83665  20.3525   0.0765  4.94    762.6536    505.6879     1.866     1.696  29.68
       162     341.2747     59.23397  21.7220   0.1885  6.04    366.5008    499.2488     1.260     0.822  48.61
       163      621.335     45.81702  21.0715   0.0801  3.64    863.6854    503.5775     1.342     1.232  22.73
       164       3239.7     104.3353  19.2785   0.0350  4.16   1461.1040    516.8404     3.621     1.835  25.63
       165     355.3739     57.17302  21.6781   0.1747  6.26   1310.3589    502.6222     1.014     0.855 -36.68
       166     1110.457     44.10003  20.4410   0.0431  4.41   1309.9906    514.6971     1.613     1.381 -41.48
       167     1059.184     104.7655  20.4924   0.1074  6.42    164.7969    511.4173     2.143     1.304  15.76
       168     127.5178     23.87012  22.7909   0.2033  3.50    442.7247    504.0079     0.742     0.697 -86.64
       169     714.0349     49.89039  20.9205   0.0759  3.90   1179.1432    515.1553     1.351     1.290 -11.56
