#   1 KRON_RADIUS            Kron apertures in units of A or B                         
#   2 Y_IMAGE                Object position along y                                    [pixel]
#   3 MAG_BEST               Best of MAG_AUTO and MAG_ISOCOR                            [mag]
#   4 FLUX_BEST              Best of FLUX_AUTO and FLUX_ISOCOR                          [count]
#   5 X_IMAGE                Object position along x                                    [pixel]
#   6 THETA_IMAGE            Position angle (CCW/x)                                     [deg]
#   7 A_IMAGE                Profile RMS along major axis                               [pixel]
#   8 B_IMAGE                Profile RMS along minor axis                               [pixel]
#   9 MAGERR_BEST            RMS error for MAG_BEST                                     [mag]
#  10 NUMBER                 Running object number                                     
#  11 FLUXERR_BEST           RMS error for BEST flux                                    [count]
 3.87     54.0606  16.5044      41516.8     63.4906  10.24     5.079     4.642   0.0045          1     172.8111
 3.50     17.6089  18.7346      5323.02    984.8857 -88.11     4.179     1.842   0.0183          2      89.6615
 3.50     18.7909  19.2676     3258.122     91.0583 -77.68     1.665     1.590   0.0176          3     52.71285
 3.50     15.4372  18.1420     9187.407   1445.5699 -58.56     1.765     1.663   0.0066          4     55.69892
 8.71      7.7679  22.2992      199.682   1469.4524 -68.75     0.745     0.449   0.2495          5     45.87173
 5.20      4.5160  21.8506     301.8164    145.3089  44.41     1.257     0.896   0.1743          6     48.44595
 7.14     10.4944  23.0755     97.68237   1183.4982  44.88     0.503     0.497   0.3830          7     34.45277
 3.50     60.5870  16.4465     43792.18   1078.2454  78.89     2.101     1.994   0.0016          8     65.69886
 7.81     14.3362  22.7843       127.73    839.6812  45.80     0.572     0.336   0.2722          9     32.01767
 3.71     25.5086  20.8596     751.9296    367.0246 -44.58     1.386     1.224   0.0637         10     44.07214
 3.96     17.9751  22.0953     240.9296    384.0876  -6.21     1.065     0.750   0.1405         11     31.16371
 3.50    182.7325  12.3763      1859822   1107.3342 -33.02     5.842     5.048   0.0001         12     175.1371
 7.95     24.5880  21.4526     435.4891    383.1618  87.82     1.000     0.715   0.1538         13     61.67476
 7.77     35.5278  21.5341     403.9824   1110.5074  83.69     1.018     0.640   0.1555         14     57.83739
 6.92     34.3293  21.4657     430.2594    326.4466 -55.26     1.064     0.824   0.1512         15     59.89957
 5.72     38.8936  21.8215     310.0249   1521.2977  57.82     1.154     0.680   0.1627         16     46.45611
 5.84     39.8461  22.1724     224.4094   1170.4801  -0.97     0.941     0.732   0.2148         17     44.37714
 5.61     45.8528  22.0268     256.6173    440.1219 -39.18     1.403     1.002   0.2582         18     61.01511
 3.50     43.2799  22.8581     119.3365    915.3459 -44.82     1.174     0.700   0.2589         19     28.44844
 3.50     80.9598  16.4788     42508.98    537.4124 -67.89     2.020     1.918   0.0016         20     63.61265
 6.79     40.5038  23.3423     76.39905   1225.9862 -32.64     0.782     0.319   0.4177         21     29.38142
 6.55     51.1657  22.3273     194.5751    265.9854  36.65     0.939     0.465   0.2264         22     40.56606
 6.43     51.0299  22.9230     112.4086   1435.2108 -33.32     0.788     0.497   0.3477         23     35.98475
 0.00     49.3377  99.0000    -24.69653   1233.6754  45.58     0.575     0.334  99.0000         24     26.98856
 3.50     75.9613  20.3298     1224.807    127.6706  65.46     1.365     1.260   0.0368         25     41.55161
 5.75     82.8388  21.3664     471.4707    421.4473 -51.35     1.212     0.808   0.1208         26     52.45634
 5.12     91.5345  20.4233      1123.81    376.7948 -74.03     1.886     1.573   0.0782         27     80.96568
 3.50    122.5929  16.0501     63089.28    788.9210 -57.93     2.107     1.961   0.0011         28     65.28696
 3.64     97.3432  19.8095     1977.934     55.9943  -9.78     1.501     1.385   0.0266         29     48.44595
 6.18     92.9185  21.8846     292.5167    495.8493  75.14     1.341     0.684   0.2004         30     53.97712
 6.08     98.7693  21.2025     548.2781    452.5781 -24.86     1.703     0.981   0.1433         31     72.34337
 4.43     96.5883  23.1853     88.28186   1075.8324  21.36     0.766     0.435   0.2928         32     23.80167
 8.01    114.3489  23.0236     102.4608    270.3333 -45.61     0.584     0.329   0.3525         33     33.25751
 7.06    117.8673  22.6731     141.5043     66.8318  46.85     0.748     0.562   0.3238         34     42.19586
 6.06    118.7044  23.8790     46.60278    990.6282 -41.71     0.576     0.332   0.5677         35     24.36179
 8.28    118.5058  23.0013     104.5873    154.4909  45.33     0.502     0.498   0.3889         36     37.45411
 4.24    235.9001  16.3790     46603.44    403.1562 -56.45     6.429     5.300   0.0053         37     227.7653
 3.50    194.4204  14.4437     277023.4    317.8754 -62.51     2.391     2.159   0.0003         38     72.90058
 3.50    163.1395  16.6823     35244.12   1468.1359 -60.49     1.999     1.918   0.0019         39     62.54345
 5.04    132.4922  22.6309      147.113    418.0420   0.54     0.804     0.500   0.2169         40     29.38142
 3.50    171.1363  18.3460      7613.74    877.1224 -68.32     1.766     1.710   0.0079         41     55.69892
 5.36    147.2958  22.4334     176.4558    353.1507 -30.05     0.879     0.605   0.2215         42     35.98475
 6.86    152.5081  23.1257     93.26843   1279.9960  -1.46     0.803     0.500   0.4526         43     38.86797
 4.82    172.3745  20.1712     1417.443    325.0115 -64.12     1.467     1.346   0.0479         44     62.54345
 3.59    165.8674  21.3838     463.9496   1445.5350  -0.27     1.320     1.134   0.0950         45     40.56606
 4.17    167.5935  21.4249     446.7437    104.3067 -28.86     1.173     1.010   0.0994         46     40.89721
 5.09    170.4302  22.3761     186.0258   1368.2188 -47.27     1.080     0.717   0.2407         47     41.22571
 5.71    169.4399  23.9130      45.1637    651.5150 -35.83     0.503     0.493   0.6368         48     26.48406
 4.46    181.2359  22.4500     173.7784    574.8821  23.27     1.275     0.773   0.2556         49     40.89721
 4.36    193.3881  20.8450     762.0547   1350.3933 -35.33     1.357     1.132   0.0706         50     49.54714
 8.45    186.9876  21.1481     576.4248   1354.0366 -74.11     0.796     0.783   0.1154         51     61.23578
 3.72    211.5532  18.9499     4365.442    827.4822  -7.29     3.936     1.949   0.0234         52     94.20974
 3.50    207.5034  20.1025     1510.012    548.9205 -81.30     1.549     1.369   0.0330         53     45.87173
 7.58    196.0324  22.8937      115.481    267.5382  56.83     0.765     0.324   0.3384         54     35.98475
 4.87    229.8139  19.8630     1882.753    414.8996 -19.48     1.967     1.652   0.0327         55     56.67968
 3.50    211.4506  21.6427     365.5256    684.4574 -82.33     1.680     1.042   0.1300         56     43.76501
 4.07    209.4233  20.6732     892.7393    349.7025  43.13     1.598     1.217   0.0651         57       53.475
 3.50    204.3587  22.4122     179.9419    250.6058 -42.34     0.981     0.848   0.1801         58     29.83698
 3.50    212.9739  20.2536     1313.878   1305.9009  53.84     1.403     1.346   0.0357         59      43.1442
 4.51    231.0750  18.8722     4689.401    562.2184  -9.41     3.381     2.852   0.0298         60      128.701
 3.50    204.4280  24.4194     28.33057   1498.4841 -36.27     0.505     0.489   0.6897         61     17.99237
 7.06    205.7527  22.6227     148.2268    937.2287 -19.28     0.855     0.346   0.2581         62     35.22709
 3.57    224.5217  20.0140     1638.397   1225.8657 -53.97     1.548     1.416   0.0323         63     48.72358
 3.50    260.5782  15.5823     97071.92    997.2145 -60.88     2.174     2.033   0.0008         64      67.3213
 3.50    266.7132  15.7835     80651.23     67.3777 -78.85     2.116     1.998   0.0009         65     65.69886
 5.20    223.1785  20.6959     874.2435    345.6050 -22.38     1.579     1.463   0.0896         66     72.15668
 3.50    223.2261  21.2850     508.1814    774.7524 -19.32     1.202     1.068   0.0785         67     36.72678
 7.24    219.2476  22.5799     154.1898    740.7268 -18.84     0.845     0.353   0.2561         68     36.35766
 4.32    244.2684  20.1215     1483.841    112.8208  77.16     2.123     1.544   0.0524         69     71.59367
 4.49    256.2215  19.1194     3734.662    612.7909 -37.89     2.503     1.802   0.0256         70     87.99111
 6.09    239.9036  21.1006     602.2095    838.4949 -37.93     1.369     1.007   0.1192         71     66.10821
 5.00    240.0472  23.7177     54.06567   1478.8186 -53.93     0.940     0.464   0.6083         72     30.28568
 3.50    313.2080  14.2182     340988.5    439.2092 -58.52     2.401     2.209   0.0002         73     74.18446
 6.70    252.6677  21.2844     508.4178   1372.6152 -44.30     1.226     0.877   0.1363         74     63.82434
 6.94    251.4614  21.1326     584.7242    107.4959 -45.23     1.084     0.836   0.1133         75     61.01511
 5.43    254.3471  22.9900     105.6833   1352.5072   0.00     0.868     0.476   0.3376         76     32.84943
 3.50    288.3375  17.3809     18519.18   1486.2755 -55.67     1.869     1.782   0.0035         77     58.99195
 3.50    282.7324  19.1258     3712.473   1522.1934 -43.42     1.561     1.489   0.0145         78     49.54714
 6.94    271.2609  21.7118      342.993   1273.5472 -11.08     1.161     0.926   0.2106         79     66.51503
 3.57    290.6129  20.1063     1504.772    514.7311 -61.03     1.859     1.552   0.0405         80     56.18117
 3.50    319.4862  16.1992     54996.05    905.2509 -61.70     2.069     1.942   0.0013         81     64.45524
 3.50    303.9936  17.7445      13249.2    201.5941 -73.78     1.829     1.708   0.0047         82     57.60371
 5.16    297.8686  20.4874     1059.333   1413.5083 -39.26     2.150     1.549   0.0888         83     86.60047
 3.56    294.7549  20.1360     1464.156   1327.3584 -23.02     1.400     1.322   0.0334         84     44.98094
 3.50    352.2489  14.3988     288718.1   1345.7200 -52.96     2.313     2.158   0.0003         85     71.59367
 3.50    352.2323  14.3560     300341.4    890.5778 -52.57     2.350     2.174   0.0003         86     72.90058
 6.19    294.2966  20.9771     674.7596   1475.4912 -66.12     1.171     0.977   0.0975         87     60.57136
 3.50    302.8696  21.1483     576.3572    563.5292  64.37     1.321     1.261   0.0764         88     40.56606
 3.50    322.8518  18.2090     8637.521    697.1324 -67.39     1.711     1.657   0.0068         89     53.72665
 6.40    309.7060  21.1083     597.9514     85.4069 -81.45     1.983     0.885   0.1428         90     78.59875
 5.00    322.1810  20.7420     837.9197    641.0074 -76.22     2.195     1.269   0.0992         91     76.51168
 4.49    328.1170  19.9116     1800.361    595.2689 -50.18     1.627     1.559   0.0402         92     66.71751
 5.36    317.8036  23.0379     101.1198    226.3809 -71.76     0.752     0.447   0.3004         93     27.97028
 3.66    347.0935  18.5931     6064.031    866.9109 -38.15     1.821     1.669   0.0106         94     59.22015
 5.35    332.8581  21.5545     396.4453     93.4377  -7.83     1.068     0.836   0.1296         95     47.31915
 4.20    330.3324  22.4573     172.6189   1545.6162  -6.15     0.994     0.631   0.1933         96     30.72783
 4.50    335.7877  21.9460     276.4274   1440.3218 -48.97     0.986     0.855   0.1486         97     37.81253
 3.79    356.5633  18.8051     4988.434    431.6613 -76.63     1.957     1.739   0.0139         98     64.03533
 3.50    350.8575  20.9481     693.0549     54.4747 -39.25     1.290     1.224   0.0625         99      39.8955
 5.14    348.6108  22.6399     145.9014     42.2829 -59.05     0.983     0.545   0.2622        100     35.22709
 3.50    368.9762  18.1726     8931.921    760.8817 -55.02     1.739     1.636   0.0065        101       53.475
 7.08    351.1112  22.2996     199.5909    920.2661 -17.72     0.939     0.676   0.2812        102     51.67916
 3.50    362.0320  20.1939      1388.12   1500.1698  10.15     1.428     1.398   0.0352        103     44.98094
 3.61    368.2886  19.2737     3239.802    442.6443 -44.79     1.606     1.455   0.0171        104     50.89012
 6.16    353.6877  24.2508     33.08765    350.3493  43.36     0.575     0.334   0.8352        105     25.44506
 3.50    396.0084  16.3885      46196.8    231.2756 -59.51     2.003     1.932   0.0015        106     62.54345
 6.26    360.5867  21.5975     381.0641    533.2850  21.62     1.031     0.915   0.1608        107     56.42075
 3.53    361.4968  21.9585     273.2722   1033.7421 -34.22     1.094     0.910   0.1256        108     31.59357
 5.96    363.8832  22.1577     227.4711   1415.6968 -78.20     1.038     0.416   0.1718        109     35.98475
 3.50    373.7502  21.6020     379.4762    992.1270 -58.62     1.191     1.021   0.0997        110     34.84208
 4.95    373.9765  21.5517        397.5   1083.8434 -45.30     1.443     1.000   0.1488        111     54.47462
 6.12    369.9420  22.4607     172.0795    210.5096  87.58     0.786     0.499   0.2223        112     35.22709
 6.59    371.1455  21.3641     472.4542     71.4292 -16.36     1.204     0.716   0.1302        113     56.65932
 6.58    376.9810  20.6899     879.1359    753.9877  38.43     1.723     0.867   0.0919        114     74.36607
 3.50    397.8752  18.6226     5901.396   1461.0035 -57.54     1.678     1.607   0.0097        115     52.45634
 5.17    376.6144  22.7236     135.0676     86.3840  23.01     1.364     0.457   0.3011        116     37.45411
 3.50    398.9585  18.4113     7169.061    354.4046 -56.82     1.759     1.641   0.0084        117     55.21246
 5.97    380.9103  22.2265     213.5059    125.6369 -22.70     0.902     0.682   0.2210        118     43.45572
 3.64    394.5150  20.1343     1466.462   1088.6681 -16.65     1.553     1.372   0.0361        119     48.72358
 3.50    420.3994  16.4896     42088.93    433.1460 -57.35     1.997     1.878   0.0016        120     62.32742
 3.50    416.4439  17.2996     19959.32    837.1794 -67.30     1.895     1.794   0.0032        121     59.67396
 5.36    390.0044  23.5780     61.49158   1195.2917  85.80     0.739     0.674   0.6015        122     34.05902
 6.62    390.2305  23.1611     90.27075    260.4030  71.18     0.744     0.452   0.4192        123     34.84208
 4.81    397.2771  23.2387     84.04614    977.5050 -21.24     1.103     0.780   0.5327        124     41.22571
 5.97    397.9344  21.1575      571.479    626.5070  15.77     1.528     0.795   0.1172        125     61.67476
 3.50    440.8153  21.5081     413.7681    305.5588 -50.74     1.189     1.082   0.0964        126     36.72678
 6.01    407.6977  22.6413     145.7068    281.6329 -82.40     1.007     0.467   0.2897        127     38.86797
 7.28    415.6719  20.2007     1379.534      2.5615  28.95     1.141     0.754   0.0399        128     50.62437
 7.80    404.5128  21.9037     287.4224    526.8889  -1.99     0.784     0.499   0.1700        129     44.98094
 3.50    425.0124  19.2755     3234.308    926.1458 -46.76     1.635     1.521   0.0171        130     50.89012
 3.50    461.8470  15.2301     134258.4    807.3679 -54.81     2.148     2.048   0.0005        131     67.52136
 7.26    413.7131  22.3678     187.4506   1562.2982 -60.78     1.155     0.451   0.2791        132     48.16672
 3.50    438.7642  17.6571     14360.79    251.9271 -54.88     1.813     1.728   0.0043        133     57.13346
 4.91    421.8596  20.5863     967.1587    158.7295  50.88     1.660     1.444   0.0785        134     69.87746
 5.46    412.6987  25.4829     10.63721    199.3263  43.64     0.560     0.342   2.3114        135     22.63991
 9.12    415.3152  22.4173     179.0956    558.6304  42.89     0.584     0.328   0.2182        136     35.98475
 6.12    419.5396  22.5273     161.8341   1203.5216  13.28     1.222     0.608   0.3288        137     48.99964
 3.50    433.6358  20.5596     991.2207   1421.9036 -17.73     1.428     1.337   0.0490        138     44.68006
 6.05    427.7109  21.4982     417.5726   1179.3110  20.69     1.296     0.986   0.1638        139     62.97331
 5.64    420.6244  23.9457     43.82532   1579.7715  17.88     0.757     0.446   0.7505        140     30.28568
 7.11    424.8950  23.0415     100.7898   1063.8502 -46.61     0.815     0.670   0.5280        141     48.99964
 6.86    431.8513  21.4213      448.194    717.7710 -64.55     0.930     0.895   0.1407        142     58.07014
 5.00    434.9498  21.3265      489.092    151.0015  25.47     1.154     0.980   0.1076        143     48.44595
 4.46    468.5386  18.3501     7584.724    850.1890  22.22     7.442     1.903   0.0221        144     154.6019
 3.51    451.1122  18.9132     4515.491     21.1382 -39.37     1.703     1.572   0.0127        145     52.96812
 5.35    446.1109  20.6617     902.2413    122.1262 -32.70     1.653     1.204   0.0846        146     70.26247
 7.20    434.6680  23.3987     72.53052    353.3013  46.61     0.562     0.341   0.4188        147     27.97028
 3.57    448.0235  20.9700     679.1934    884.3464  -1.26     2.252     1.419   0.0940        148     58.76285
 3.50    458.6750  18.7847     5083.167     34.3958 -60.50     1.679     1.537   0.0111        149     51.93951
 5.33    444.1706  22.7330     133.9105    654.5854 -70.39     0.757     0.448   0.2345        150      28.9187
 3.53    464.5988  20.0865     1532.429    468.4730 -73.92     1.596     1.441   0.0347        151     48.99964
 4.28    453.8176  22.4761     169.6466   1533.1399  37.42     0.790     0.678   0.1881        152     29.38142
 5.10    461.9113  21.2436     527.9114   1096.1396  54.35     1.156     1.063   0.1074        153     52.19856
 3.50    472.0582  20.3095     1247.911    254.1115 -72.83     1.524     1.321   0.0397        154     45.57674
 5.22    462.3787  21.6750     354.7998    724.6503 -28.34     1.116     0.728   0.1301        155     42.51432
 7.22    457.7005  23.3750     74.13428   1223.6603 -42.96     0.565     0.339   0.4167        156     28.44844
 3.50    472.9619  19.9188     1788.459    734.7728 -38.58     1.496     1.347   0.0277        157     45.57674
 3.50    478.7596  19.6056     2386.389    922.8173 -35.41     1.544     1.447   0.0219        158     48.16672
 3.92    478.7934  20.6404     920.1256   1276.8331 -53.38     1.380     1.256   0.0558        159     47.31915
 4.44    476.5136  23.1451     91.61499   1168.0371 -89.76     0.813     0.676   0.3590        160     30.28568
 4.27    533.7934  17.2543     20809.82    518.6295  28.40     4.107     3.566   0.0078        161     150.0863
 3.50    484.9557  20.7101      862.927   1070.4277 -66.11     1.365     1.226   0.0523        162     41.55161
 7.96    473.4778  23.4088      71.8606    781.5225  45.02     0.505     0.494   0.5660        163     37.45411
 4.94    496.9649  19.6072     2382.962     82.5904  56.28     2.338     2.068   0.0457        164     100.1773
 5.19    489.7222  20.9463        694.2    839.5610  85.43     1.974     0.945   0.1021        165     65.28696
 4.09    496.5237  19.7324     2123.508   1186.6776 -15.91     2.961     1.842   0.0450        166     87.99111
 4.58    481.6935  22.7196      135.568   1309.1306  71.28     0.894     0.694   0.2728        167     34.05902
 3.62    479.8593  23.1439     91.71826    682.6145  17.68     1.030     0.720   0.3368        168     28.44844
 5.99    481.6788  22.8111     124.6093   1520.4889  -0.10     0.921     0.467   0.3136        169     35.98475
