#   1 KRON_RADIUS            Kron apertures in units of A or B                         
#   2 Y_IMAGE                Object position along y                                    [pixel]
#   3 MAG_BEST               Best of MAG_AUTO and MAG_ISOCOR                            [mag]
#   4 FLUX_BEST              Best of FLUX_AUTO and FLUX_ISOCOR                          [count]
#   5 X_IMAGE                Object position along x                                    [pixel]
#   6 THETA_IMAGE            Position angle (CCW/x)                                     [deg]
#   7 A_IMAGE                Profile RMS along major axis                               [pixel]
#   8 B_IMAGE                Profile RMS along minor axis                               [pixel]
#   9 MAGERR_BEST            RMS error for MAG_BEST                                     [mag]
#  10 NUMBER                 Running object number                                     
#  11 FLUXERR_BEST           RMS error for BEST flux                                    [count]
 3.50     53.2838  43.6548  5.72895e-07     63.6477   1.96     5.083     4.550   0.0013          1 7.006287e-10
 3.50     16.4473  45.7935  7.99086e-08    985.0638 -88.35     4.239     1.966   0.0057          2 4.194085e-10
 3.50     18.0485  46.3044 4.991764e-08     91.3017 -35.32     1.708     1.679   0.0053          3 2.436543e-10
 3.50     14.6274  45.2459 1.323223e-07   1445.7544 -58.49     1.884     1.809   0.0022          4 2.703884e-10
 3.50      4.3305  49.1477 3.638557e-09    145.2530  74.04     1.015     0.886   0.0414          5 1.387063e-10
 3.50     10.4536  50.1550 1.438791e-09   1183.5219  33.10     0.501     0.497   0.0613          6  8.12181e-11
 3.50     17.2486  48.9810 4.242095e-09    384.5203  15.12     0.993     0.961   0.0360          7 1.406739e-10
 3.50     24.7669  48.0082  1.03925e-08    367.2263 -21.33     1.299     1.275   0.0196          8 1.875652e-10
 3.50     59.7912  43.6147 5.944347e-07   1078.4733  84.38     2.268     2.147   0.0006          9 3.206144e-10
 3.50     23.9616  49.8061 1.984156e-09    383.4862  89.84     0.803     0.500   0.0513         10 9.378259e-11
 3.50     33.8460  48.6377 5.819978e-09   1110.2986  68.70     1.623     0.858   0.0324         11 1.738776e-10
 3.50     33.6543  49.4422 2.774201e-09    326.8777 -69.17     0.926     0.695   0.0459         12 1.172282e-10
 3.50     37.8553  49.5842 2.433988e-09   1521.1608  46.14     0.830     0.670   0.0479         13 1.074414e-10
 3.50     38.8119  49.3823 2.931532e-09   1170.4941   0.66     0.976     0.731   0.0443         14 1.195498e-10
 3.50     42.4489  49.2468 3.321145e-09    915.4882  43.03     0.914     0.910   0.0434         15 1.326286e-10
 3.50     80.1583  43.6592 5.705679e-07    537.6335 -60.38     2.154     2.100   0.0006         16 3.092693e-10
 3.50     44.4958  50.1836 1.401386e-09    440.5081 -45.28     0.502     0.497   0.0629         17  8.12181e-11
 3.50     75.1918  47.2511 2.087206e-08    128.0417 -37.06     1.525     1.464   0.0113         18  2.17426e-10
 3.50     82.1747  48.9276 4.456225e-09    421.4829  79.56     1.084     0.961   0.0352         19 1.445287e-10
 3.50     90.7019  47.8992 1.149021e-08    376.9533  -8.55     1.692     1.599   0.0224         20 2.367894e-10
 3.50    121.8149  43.2384 8.406691e-07    789.1761 -57.47     2.230     2.157   0.0004         21 3.171668e-10
 3.50     96.6356  46.8376 3.054696e-08     56.2013 -28.27     1.659     1.551   0.0083         22 2.321001e-10
 3.50     98.0719  48.4559 6.880565e-09    452.9169 -16.52     1.609     0.997   0.0291         23 1.846112e-10
 3.50     91.5053  49.7965 2.001613e-09    495.9696  -1.52     0.786     0.500   0.0509         24 9.378259e-11
 3.50    162.3151  43.8511 4.781559e-07   1468.3146 -52.28     2.120     2.050   0.0007         25 3.011648e-10
 3.50    131.2890  49.7017 2.184311e-09    418.0253   6.66     0.731     0.680   0.0508         26 1.021972e-10
 3.50    170.3201  45.4379 1.108806e-07    877.3334 -43.98     1.866     1.830   0.0026         27 2.683477e-10
 3.50    151.4879  50.0762 1.547134e-09   1280.4852 -45.65     0.501     0.498   0.0570         28  8.12181e-11
 3.50    164.9676  48.1596 9.039715e-09   1445.6472  15.23     1.299     1.187   0.0216         29 1.800894e-10
 3.50    166.7812  48.4149 7.145602e-09    104.4359 -17.91     1.259     1.143   0.0259         30 1.706869e-10
 3.50    169.3400  49.4314  2.80173e-09   1368.8975  67.96     0.911     0.688   0.0445         31 1.148597e-10
 3.50    180.3982  49.2703  3.24996e-09    575.1818  40.13     1.116     0.678   0.0422         32 1.262587e-10
 3.50    186.6550  49.1864 3.511175e-09   1354.9115  76.18     1.037     0.755   0.0397         33 1.284171e-10
 3.50    192.5616  47.8980  1.15026e-08   1350.5184  13.85     1.363     1.331   0.0185         34 1.961604e-10
 3.50    210.7328  46.0890  6.08686e-08    827.6205  -5.68     3.923     2.048   0.0073         35 4.114694e-10
 3.50    206.6985  47.1914 2.205232e-08    549.0851 -14.23     1.527     1.494   0.0109         36 2.211858e-10
 3.50    212.1701  47.1644 2.260625e-08   1306.1150  48.05     1.532     1.510   0.0108         37 2.248827e-10
 3.50    230.1198  46.1918 5.536913e-08    562.2935 -33.46     3.243     3.073   0.0090         38 4.570398e-10
 3.50    210.9191  48.5587 6.259433e-09    684.8598 -65.27     1.212     1.114   0.0293         39  1.69069e-10
 3.50    259.7668  42.6499 1.445632e-06    997.4614 -49.03     2.336     2.232   0.0003         40  3.34049e-10
 3.50    223.8962  47.0047 2.618874e-08   1226.1107 -11.07     1.560     1.493   0.0093         41 2.248827e-10
 3.50    222.6267  48.2279 8.488841e-09    774.9563 -88.10     1.217     1.189   0.0224         42 1.754512e-10
 3.50    265.9227  42.9658 1.080661e-06     67.5955 -49.63     2.267     2.205   0.0003         43 3.240253e-10
 3.50    243.9446  47.4249 1.778512e-08    112.8233 -87.57     1.981     1.556   0.0154         44 2.525173e-10
 3.50    255.4841  46.3331 4.861517e-08    612.9722 -38.61     2.463     2.026   0.0073         45 3.265601e-10
 3.50    239.2761  48.5623 6.238677e-09    838.8503 -32.84     1.232     1.131   0.0303         46 1.738776e-10
 3.50    250.5009  48.9697 4.286495e-09    107.5043 -43.05     1.107     0.853   0.0346         47 1.367104e-10
 3.50    287.5287  44.5343 2.548469e-07   1486.4596 -50.26     2.037     1.980   0.0013         48 2.937731e-10
 3.50    281.9088  46.1792 5.601728e-08   1522.3840 -32.21     1.711     1.692   0.0048         49    2.459e-10
 3.50    270.8255  48.8285  4.88196e-09   1273.7584  15.27     1.229     0.913   0.0338         50 1.519452e-10
 3.50    303.1563  44.8524 1.901332e-07    201.7476 -50.40     1.960     1.914   0.0016         51 2.803691e-10
 3.50    293.3464  48.3268 7.749483e-09   1475.7401 -56.35     1.310     1.196   0.0250         52 1.785567e-10
 3.50    302.3322  48.0991 9.557501e-09    563.7213  50.64     1.362     1.282   0.0216         53 1.904733e-10
 3.50    292.5020  50.1129 1.495722e-09    248.4886 -46.55     0.501     0.499   0.0590         54  8.12181e-11
 3.50    322.0978  45.2929 1.267142e-07    697.3354 -10.43     1.862     1.821   0.0023         55   2.6937e-10
 3.50    308.5820  49.2014 3.462885e-09     85.3546  68.34     0.971     0.833   0.0403         56 1.284171e-10
 3.50    321.8807  48.0840 9.691858e-09    641.4990 -61.14     1.839     1.276   0.0251         57 2.236572e-10
 3.50    327.5215  47.1244 2.345454e-08    595.4216 -30.45     1.745     1.712   0.0116         58 2.514265e-10
 3.50    332.1841  48.8570 4.755372e-09     93.4054  69.46     1.046     0.961   0.0326         59 1.426143e-10
 3.50    329.3154  49.1423 3.656695e-09   1546.0649 -55.35     0.993     0.833   0.0388         60 1.305398e-10
 3.50    350.0923  47.8711 1.179171e-08     54.7255 -36.17     1.354     1.325   0.0178         61 1.933377e-10
 3.50    368.1498  45.2563  1.31067e-07    761.1053 -31.33     1.934     1.844   0.0023         62 2.744243e-10
 3.50    361.1681  47.1821 2.224027e-08   1500.3917 -15.58     1.575     1.451   0.0106         63 2.161582e-10
 3.50    395.2384  43.5433 6.348899e-07    231.4511 -62.05     2.199     2.124   0.0005         64 3.128039e-10
 3.50    360.6426  48.5774 6.152385e-09   1034.0239 -17.23     1.213     1.064   0.0296         65 1.674354e-10
 3.50    375.3467  48.3781 7.391838e-09    754.0450  55.15     1.689     1.009   0.0280         66 1.904733e-10
 3.50    370.6205  49.5108 2.604196e-09     71.8723 -68.60     0.915     0.688   0.0489         67 1.172282e-10
 3.50    380.7867  49.0009 4.165388e-09      1.4591 -88.09     1.734     0.495   0.0329         68 1.262587e-10
 3.50    373.5027  48.9019 4.562955e-09   1083.8607 -17.47     1.104     0.983   0.0344         69 1.445287e-10
 3.50    397.0646  45.6761 8.903738e-08   1461.2047 -63.65     1.784     1.757   0.0031         70 2.568342e-10
 3.50    398.1861  45.4992 1.047921e-07    354.6312 -30.07     1.870     1.811   0.0028         71 2.683477e-10
 3.50    375.6045  50.1696 1.419629e-09     87.1944 -18.43     0.742     0.452   0.0621         72  8.12181e-11
 3.50    380.1653  49.5535 2.503776e-09    125.8444  44.74     0.819     0.679   0.0466         73 1.074414e-10
 3.50    393.8183  47.2330 2.122193e-08   1088.7571 -27.90     1.541     1.453   0.0111         74 2.161582e-10
 3.50    382.4933  50.0726  1.55227e-09     67.5074 -45.03     0.504     0.495   0.0568         75  8.12181e-11
 3.50    388.5466  50.1084 1.501837e-09   1195.4808  35.86     0.502     0.496   0.0587         76  8.12181e-11
 3.50    412.0318  48.2128 8.607286e-09      1.7929 -89.93     2.698     0.738   0.0235         77  1.86094e-10
 3.50    397.0578  48.4960 6.631459e-09    626.8564 -51.07     1.312     1.189   0.0297         78 1.816092e-10
 3.50    439.9524  48.4747 6.762608e-09    305.7993  46.70     1.212     1.124   0.0272         79  1.69069e-10
 3.50    403.5371  49.3603 2.991497e-09    526.6381  83.79     1.052     0.640   0.0426         80 1.172282e-10
 3.50    407.1430  49.6479 2.295344e-09    282.1613 -46.18     0.824     0.673   0.0508         81 1.074414e-10
 3.50    437.9734  44.7640 2.062516e-07    252.0832 -76.57     2.005     1.961   0.0015         82 2.832948e-10
 3.50    461.0829  42.4472 1.742254e-06    807.6462 -60.36     2.358     2.271   0.0002         83 3.381379e-10
 3.50    420.8534  47.9292 1.117636e-08    159.0429  39.75     1.733     1.408   0.0222         84 2.285199e-10
 3.50    419.5251  50.0187 1.631232e-09   1580.4937  42.69     0.503     0.496   0.0541         85  8.12181e-11
 3.50    432.9463  47.5509 1.583634e-08   1422.0889 -13.52     1.448     1.394   0.0357         86 5.209136e-10
 3.50    420.5040  50.2124 1.364749e-09    134.4958 -45.01     0.502     0.498   0.0646         87  8.12181e-11
 3.50    426.5382  48.7207 5.391674e-09   1179.2578   2.31     1.245     1.017   0.0331         88 1.641195e-10
 3.50    434.2637  48.6617 5.692915e-09    151.1025 -22.09     1.132     1.028   0.0297         89 1.555208e-10
 3.50    450.3340  46.0156 6.512862e-08     21.3314 -58.10     1.770     1.743   0.0042         90 2.546849e-10
 3.50    427.3281  48.6875 5.558868e-09    432.8611  -1.25     2.197     0.467   0.1215         91 6.218532e-10
 3.50    430.8225  49.7795 2.033317e-09    718.8328  45.27     0.773     0.572   0.0531         92 9.947145e-11
 3.50    467.7827  45.4538 1.092596e-07    850.6353  22.60     7.560     2.175   0.0059         93 5.917414e-10
 3.50    457.8497  45.8887  7.32023e-08     34.5903 -54.04     1.792     1.743   0.0038         94 2.579021e-10
 3.50    445.2361  48.0589 9.918563e-09    122.3735 -22.13     1.394     1.304   0.0215         95 1.961604e-10
 3.50    481.1953  45.7746 8.131129e-08   1287.6984  32.77     6.954     3.399   0.0129         96 9.686375e-10
 3.50    443.7329  49.8055 1.985106e-09    655.0186   1.84     0.736     0.673   0.0559         97 1.021972e-10
 3.50    463.6465  47.1284 2.336911e-08    468.6518  68.76     1.604     1.550   0.0106         98 2.285199e-10
 3.50    452.9315  49.2876  3.19862e-09   1533.1636  -0.23     0.914     0.750   0.0414         99 1.218271e-10
 3.50    461.0337  48.3920 7.297665e-09   1096.0989  39.82     1.308     1.103   0.0266        100 1.785567e-10
 3.50    471.4113  47.3230 1.953461e-08    254.2650 -61.22     1.522     1.472   0.0119        101 2.148829e-10
 3.50    472.1447  46.9002 2.883608e-08    734.9272  77.93     1.557     1.496   0.0084        102 2.236572e-10
 3.50    461.8802  49.1603 3.596391e-09    725.1290  -9.04     1.164     0.729   0.0407        103  1.34685e-10
 3.50    477.9432  46.6113 3.762558e-08    923.0552 -35.09     1.696     1.621   0.0069        104 2.390996e-10
 3.50    488.7608  48.1749 8.913328e-09    839.5934  87.00     2.110     0.990   0.0256        105 2.097042e-10
 3.50    484.0721  47.5571 1.574601e-08   1070.7034 -27.62     1.482     1.420   0.0144        106 2.083895e-10
 3.50    496.2172  46.8436 3.037746e-08     82.9051  74.37     2.340     2.131   0.0117        107 3.265601e-10
 3.50    476.0095  49.7012 2.185369e-09   1168.3043  87.06     0.731     0.675   0.0508        108 1.021972e-10
 3.50    478.9706  49.4508 2.752156e-09    682.9415  41.42     0.787     0.783   0.0424        109 1.074414e-10
 3.50    495.7078  46.8047 3.148637e-08   1186.8019 -15.63     3.097     1.926   0.0123        110 3.555708e-10
 3.50    504.1461  47.4898 1.675189e-08    762.9879 -56.93     1.864     1.731   0.0171        111  2.64219e-10
 3.50    515.2971  46.4218 4.480101e-08   1461.0424  24.07     4.145     1.719   0.0094        112 3.873857e-10
 3.50    501.9452  48.0755 9.767717e-09    863.7459  -5.36     1.318     1.197   0.0204        113 1.831164e-10
 3.50    497.9505  49.2283 3.378191e-09    366.3564 -14.25     1.001     0.747   0.0406        114 1.262587e-10
 3.50    533.2037  46.6804 3.530494e-08    527.0394  88.38     4.277     0.798   0.0438        115 1.425085e-09
 3.50    509.9374  48.2085 8.642071e-09    164.8970  -4.26     1.962     1.092   0.0264        116 2.097042e-10
 3.50    513.7638  48.0731   9.7892e-09   1179.2416 -10.35     1.293     1.280   0.0208        117 1.875652e-10
 3.50    509.6940  50.7543 8.284929e-10    454.3212  44.17     0.560     0.342   0.0753        118 5.742987e-11
 3.50    519.0712  48.5003 6.605406e-09    641.9521  -6.15     1.183     1.164   0.0281        119 1.706869e-10
 3.50    518.1534  49.6265 2.341001e-09   1519.1439 -46.02     0.818     0.685   0.0498        120 1.074414e-10
 3.50    520.6724  50.7940 7.987414e-10    853.6773 -45.23     0.570     0.337   0.0781        121 5.742987e-11
 3.50    540.1843  47.1675 2.254269e-08    999.9459 -88.54     1.532     1.485   0.0108        122 2.236572e-10
 3.50    536.3392  48.9568 4.338081e-09    404.5271  39.13     1.181     0.788   0.0352        123 1.406739e-10
 3.50    558.9300  46.8328 3.068186e-08   1041.7938  -1.86     1.646     1.622   0.0084        124 2.367894e-10
 3.50    543.5108  50.1467 1.449837e-09    934.4875 -45.12     0.505     0.495   0.0608        125  8.12181e-11
 3.50    571.3123  47.1990 2.189874e-08     45.8628  46.07     2.108     1.535   0.0131        126  2.64219e-10
 3.50    555.9459  49.6301 2.333317e-09    778.7078  78.95     0.737     0.676   0.0476        127 1.021972e-10
 3.50    580.7177  45.3062 1.251703e-07    144.9537 -55.36     1.871     1.837   0.0023        128   2.6937e-10
 3.50    571.4236  47.1599 2.270013e-08   1447.9548  17.48     2.404     1.731   0.0141        129 2.937731e-10
 3.50    565.1072  48.8793 4.658807e-09    139.5362 -68.14     1.045     0.976   0.0337        130 1.445287e-10
 3.50    596.6661  45.7335 8.444708e-08    782.6929 -67.20     3.477     3.203   0.0062        131 4.844803e-10
 3.50    582.2125  45.3095 1.247954e-07    319.2401  -7.43     1.866     1.822   0.0024        132 2.703884e-10
 3.50    576.2396  48.5201 6.486034e-09   1001.8231 -11.50     1.233     1.163   0.0291        133 1.738776e-10
 3.50    584.4807  48.2840 8.060858e-09     75.9897 -70.79     1.272     1.180   0.0236        134 1.754512e-10
 3.50   1011.1340  49.6386 2.314992e-09    267.8728  43.30     0.847     0.671   0.0504        135 1.074414e-10
 3.50   1597.6226  47.9220 1.125117e-08    654.8542 -11.20     1.736     1.488   0.0207        136 2.148829e-10
 3.50   1600.0000  50.5233 1.024932e-09     18.9841   0.00     0.858     0.289   0.0657        137 6.203135e-11
 3.50   1594.7495  48.3550 7.550719e-09    374.1707  58.00     1.390     1.139   0.0263        138 1.831164e-10
 3.50   1593.4780  49.8454 1.913576e-09   1385.0256  -1.02     0.800     0.499   0.0532        139 9.378259e-11
 3.50   1591.4967  50.1646 1.426084e-09    566.5433  65.73     0.500     0.498   0.0618        140  8.12181e-11
 3.50   1584.9576  47.5335   1.6091e-08   1108.9229 -21.91     1.455     1.382   0.0137        141 2.030452e-10
 3.50   1585.9427  49.6796 2.229343e-09   1069.6754  87.76     0.738     0.663   0.0485        142 9.947145e-11
 3.50   1563.6938  43.3700 7.447209e-07    304.2417 -67.80     2.206     2.137   0.0005        143 3.162991e-10
 3.50   1519.4851  50.1305 1.471586e-09     85.4958 -43.82     0.502     0.497   0.0599        144  8.12181e-11
 3.50   1515.3531  48.6141 5.947977e-09   1547.2754  63.80     1.332     1.028   0.0315        145 1.722896e-10
 3.50   1514.6383  48.7779 5.114764e-09    483.6127 -43.67     1.055     0.951   0.0307        146 1.445287e-10
 3.50    939.2388  47.0647 2.478116e-08   1067.2456 -13.95     1.565     1.509   0.0099        147 2.248827e-10
 3.50    938.3405  48.5783 6.147324e-09    516.2775  66.79     1.388     1.012   0.0307        148 1.738776e-10
 3.50    928.3609  47.6897 1.393567e-08   1322.5060 -65.01     1.391     1.339   0.0154        149 1.975565e-10
 3.50    912.9041  47.9554 1.090995e-08    838.6151 -70.60     1.368     1.304   0.0190        150 1.904733e-10
 3.50    912.3674  48.6172 5.931118e-09   1001.1682  10.25     1.159     1.079   0.0297        151 1.624362e-10
 3.50    900.4851  45.7624 8.222991e-08    302.8287 -53.15     1.798     1.764   0.0065        152  4.94334e-10
 3.50    896.1305  47.3467 1.911183e-08    538.6094   4.56     2.016     1.648   0.0150        153 2.631767e-10
 3.50    897.0074  49.8249 1.949983e-09    987.5042 -89.01     0.798     0.500   0.0522        154 9.378259e-11
 3.50    893.7722  48.8872 4.625162e-09   1426.2926  -8.96     1.099     0.926   0.0344        155  1.46418e-10
 3.50    880.2290  42.6904 1.392622e-06   1592.5948 -75.53     2.314     2.172   0.0003        156 3.257173e-10
 3.50    888.7687  48.1362 9.236741e-09    325.9186  13.92     1.767     1.231   0.0253        157 2.148829e-10
 3.50    888.6119  50.1502 1.445139e-09    681.1984 -18.05     0.754     0.450   0.0610        158  8.12181e-11
 3.50    885.7618  48.0008 1.046404e-08   1500.3232  20.64     1.323     1.269   0.0195        159 1.875652e-10
 3.50    885.0236  48.7577  5.21096e-09    339.0868  40.45     1.228     1.082   0.0342        160 1.641195e-10
 3.50    877.7056  48.3683 7.458987e-09    961.0355  85.83     1.256     1.175   0.0258        161 1.770108e-10
 3.50    876.3418  49.4413 2.776428e-09    541.8340  70.07     0.911     0.686   0.0468        162 1.195498e-10
 3.50    869.4551  46.6066  3.77886e-08   1103.6591 -48.29     2.085     1.858   0.0083        163 2.890573e-10
 3.50    867.8583  47.6561 1.437362e-08    939.7767  33.17     1.956     1.418   0.0182        164 2.413877e-10
 3.50    869.3425  49.4069 2.865855e-09    643.8581  68.54     0.905     0.685   0.0435        165 1.148597e-10
 3.50    860.4965  50.1030 1.509375e-09   1554.4673  47.91     0.505     0.494   0.0584        166  8.12181e-11
 3.50    858.4554  48.4242 7.084528e-09   1340.0957 -86.37     1.439     0.964   0.0760        167   4.9556e-10
 3.50    855.7829  50.0337 1.608887e-09    545.3911 -72.02     0.754     0.451   0.0571        168 8.453448e-11
 3.50    844.9655  48.3951 7.277429e-09   1063.9874   0.93     1.171     1.139   0.0242        169 1.624362e-10
