#   1 KRON_RADIUS            Kron apertures in units of A or B                         
#   2 MAGERR_APER            RMS error vector for fixed aperture mag.                   [mag]
#   3 Y_IMAGE                Object position along y                                    [pixel]
#   4 X_IMAGE                Object position along x                                    [pixel]
#   5 THETA_IMAGE            Position angle (CCW/x)                                     [deg]
#   6 FLUX_APER              Flux vector within fixed circular aperture(s)              [count]
#   7 A_IMAGE                Profile RMS along major axis                               [pixel]
#   8 B_IMAGE                Profile RMS along minor axis                               [pixel]
#   9 FLUX_RADIUS            Fraction-of-light radii                                    [pixel]
#  10 FLUXERR_APER           RMS error vector for aperture flux(es)                     [count]
#  11 MAG_APER               Fixed aperture magnitude vector                            [mag]
#  12 NUMBER                 Running object number                                     
 4.06   0.0028     54.8102     63.6162   7.95     29638.55     4.204     3.866     12.083     77.60409  16.8704          1
 4.70   0.0168     18.1055    984.9224 -87.76     5015.733     3.562     1.819      8.323     77.57773  18.7992          2
 3.50   0.0210     19.5111     91.2539 -74.58     4012.391     1.594     1.593      3.984     77.58652  19.0415          3
 3.56   0.0082     16.2668   1445.6176   5.53     10265.69     1.890     1.805      3.989     77.64801  18.0215          4
 4.37   0.0975     26.1560    366.6079  16.67     865.0204     1.016     0.880      3.192     77.65679  20.7074          5
 3.50   0.0018     61.3924   1078.3998  50.84     47811.13     2.294     2.198      4.412     77.59531  16.3512          6
 3.50   0.0018     81.5718    537.4313  -5.04     45702.96     2.231     2.187      4.201     77.65679  16.4001          7
 3.50   0.0002    183.5919   1107.5521 -24.07     503878.8     4.890     4.553      9.545     77.66557  13.7942          8
 3.90   0.0512     76.6700    128.0600  63.24     1645.061     1.316     1.219      3.551     77.61288  20.0095          9
 3.50   0.0012    123.3897    788.9986  15.16     67805.29     2.311     2.260      4.374     77.61288  15.9718         10
 4.09   0.0351     98.1763     56.0645  12.14     2399.113     1.461     1.381      4.301     77.64801  19.5999         11
 8.72   0.1330     99.7577    453.0021   0.10     633.9789     0.695     0.428      4.169     77.65679  21.0448         12
 3.50   0.0003    195.1722    317.9897 -45.18     290888.2     2.614     2.518      4.402     77.63923  14.3907         13
 3.50   0.0022    163.8853   1468.2463   6.52     38380.91     2.168     2.119      4.284     77.61288  16.5897         14
 3.95   0.0096    171.8063    877.2582 -13.05     8762.553     1.849     1.810      4.242     77.67435  18.1934         15
 6.26   0.1215    166.6234   1445.5895 -45.57     694.0919     1.074     0.955      3.226     77.63045  20.9465         16
 6.27   0.0517    173.0470    325.1680  -4.64     1632.411     1.249     1.149      6.776     77.65679  20.0179         17
 7.19   0.1406    168.1921    104.1895  44.40     599.4828     0.754     0.563      3.492     77.59531  21.1056         18
 4.85   0.0031    236.3907    403.5207 -42.71     27301.25     5.571     4.586     18.541     77.63923  16.9595         19
 6.14   0.0867    194.1268   1350.6166  55.74     972.9097     1.147     1.041      4.524     77.68313  20.5798         20
 5.77   0.0228    212.2842    827.3955  -7.78     3694.025     3.064     1.803     10.224     77.62167  19.1313         21
 5.10   0.0471    208.3243    548.9987  14.64     1789.946     1.403     1.345      4.170     77.65679  19.9179         22
 6.34   0.0694    210.3540    349.7424  51.36     1214.364     1.187     1.029      5.670     77.62167  20.3391         23
 3.83   0.0530    213.7674   1306.0284  -4.51     1592.209     1.489     1.313      3.275     77.64801  20.0450         24
 9.38   0.1534    212.9898    684.5063 -57.67     549.4189     0.791     0.316      3.868     77.60409  21.2002         25
 3.50   0.0008    261.3132    997.3710 -23.07     102829.1     2.403     2.367      4.352     77.62167  15.5197         26
 6.49   0.0266    231.9824    561.7929   6.10     3167.858     2.483     2.286     12.278     77.60409  19.2981         27
 4.02   0.0371    225.6863   1226.0515  38.45     2270.907     1.477     1.312      4.289     77.59531  19.6595         28
 6.12   0.1430    224.2461    774.5557 -15.37     589.6545     1.009     0.965      3.383     77.66557  21.1235         29
 3.50   0.0010    267.4353     67.6016  -3.84     86908.27     2.371     2.303      4.279     77.62167  15.7023         30
 7.01   0.0535    245.6219    113.0311 -81.84     1574.646     1.356     1.122      7.444     77.63045  20.0570         31
 5.62   0.0242    256.8119    612.8681 -22.48     3492.544     2.112     1.770      7.587     77.67435  19.1921         32
 7.99   0.1461    253.1951   1372.6124 -71.84     576.8202     0.758     0.448      3.867     77.59531  21.1474         33
 3.50   0.0002    313.6460    439.4265 -24.89     356068.7     2.632     2.551      4.360     77.66557  14.1712         34
 3.50   0.0042    289.1028   1486.3685  -1.22      20270.1     2.022     1.962      4.091     77.56894  17.2829         35
 4.05   0.0197    283.4547   1522.2284  -4.74     4289.299     1.677     1.596      3.682     77.65679  18.9690         36
 5.18   0.0477    291.1014    514.9318 -18.94     1768.314     1.625     1.502      5.413     77.59531  19.9311         37
 3.61   0.0056    304.6104    201.7310  31.11     15056.02     1.979     1.947      4.023     77.67435  17.6057         38
 3.50   0.0014    320.2000    905.3687  10.23     59645.25     2.242     2.205      4.267     77.61288  16.1111         39
 4.85   0.0451    295.4975   1327.5172 -13.90     1866.984     1.372     1.364      4.151     77.55135  19.8721         40
 6.62   0.1541    294.9007   1475.5369 -74.29     546.7173     1.173     0.974      5.086     77.59531  21.2056         41
 3.50   0.0003    352.8514    890.7111 -28.70     314523.2     2.568     2.504      4.340     77.58652  14.3059         42
 3.50   0.0003    352.8624   1345.7847 -23.23     303351.6     2.524     2.493      4.366     77.63045  14.3451         43
 8.97   0.0867    299.3999   1412.7705 -18.71     972.1382     0.759     0.449      4.552     77.59531  20.5807         44
 3.75   0.0086    323.5458    697.2219   5.39     9841.861     1.928     1.868      4.070     77.66557  18.0673         45
 7.68   0.1272    303.9609    563.0087   0.52     662.9212     1.078     0.725      4.696     77.64801  20.9963         46
 5.80   0.0481    328.9993    595.2292 -20.45     1750.995     1.631     1.429      5.443     77.59531  19.9418         47
 9.34   0.1009    322.4987    641.4872  45.81     834.5688     0.503     0.497      3.017     77.55135  20.7463         48
 4.63   0.0125    347.9163    866.9841  39.24     6729.275     1.830     1.739      5.004     77.64801  18.4801         49
 7.46   0.1838    333.5166     93.5302  48.31     458.4435     0.502     0.497      3.013     77.56894  21.3968         50
 4.55   0.0154    357.2899    431.7542 -86.08     5455.709     1.966     1.846      4.772     77.58652  18.7079         51
 6.03   0.0986    351.3906     54.6137  40.34     854.9255     1.061     0.951      3.406     77.60409  20.7202         52
 4.15   0.0083    369.6064    761.0257  39.72      10208.1     1.902     1.847      4.109     77.63923  18.0276         53
 5.27   0.0503    362.6790   1500.2339  23.19     1676.471     1.478     1.287      3.529     77.61288  19.9890         54
 4.23   0.0222    368.8589    442.7273   2.26     3793.393     1.676     1.588      3.831     77.59531  19.1024         55
 7.68   0.2632    361.9861   1033.5194 -89.92     320.3324     0.798     0.500      2.231     77.64801  21.7860         56
 3.50   0.0017    396.6423    231.3586   5.16        50345     2.248     2.188      4.191     77.63923  16.2951         57
 6.69   0.1565    374.2293    992.4621  -0.46     538.9129     0.965     0.724      3.823     77.63923  21.2212         58
 3.62   0.0124    398.5532   1461.1105  -0.57     6806.527     1.792     1.725      3.871     77.58652  18.4677         59
 3.57   0.0103    399.5710    354.4686  18.77     8199.063     1.831     1.777      3.852     77.63923  18.2656         60
 4.49   0.0522    395.4066   1088.5164 -42.15     1613.831     1.369     1.352      3.968     77.62167  20.0304         61
 3.50   0.0018    421.0752    433.2244  16.34     46190.46     2.212     2.168      4.212     77.63045  16.3886         62
 3.50   0.0038    417.0695    837.3176  35.07     22186.12     2.038     2.017      4.114     77.56894  17.1848         63
 7.26   0.1346    414.4749      1.5991 -88.23     482.4377     1.572     0.613      6.535     59.78656  21.3414         64
 4.05   0.0209    425.6546    926.3806  22.64     4042.644     1.672     1.608      4.225     77.65679  19.0333         65
 3.60   0.0052    439.4595    252.0048  10.36     16373.91     2.018     1.955      4.082     77.68313  17.5146         66
 7.26   0.0933    422.0591    159.4032  64.92      904.156     1.300     0.858      6.463     77.68313  20.6594         67
 3.50   0.0006    462.6514    807.5664  -4.64     142619.9     2.400     2.356      4.292     77.65679  15.1645         68
 5.74   0.0737    434.3322   1421.9010  11.76     1142.978     1.245     1.134      3.358     77.59531  20.4049         69
 7.77   0.1586    435.2876    151.0216   3.41     531.5605     0.735     0.683      4.210     77.63045  21.2361         70
 4.32   0.0160    451.8255     21.2910 -11.88     5255.862     1.771     1.671      4.259     77.60409  18.7484         71
 5.78   0.1630    441.5108    305.5070 -83.02     516.7068     0.924     0.898      2.976     77.56894  21.2669         72
 7.34   0.0980    446.8344    122.0894 -82.33     860.1681     1.148     0.731      4.248     77.59531  20.7135         73
 4.33   0.0145    459.2914     34.4861 -51.43     5815.881     1.743     1.673      4.058     77.55135  18.6385         74
 5.74   0.0202    469.2626    850.4149  22.43     4169.724     5.847     1.730     18.226     77.63045  18.9997         75
 9.44   0.0941    448.6069    883.8131  18.70     894.9166     0.775     0.444      4.649     77.57773  20.6705         76
 3.80   0.0462    465.1890    468.4067  53.61     1824.569     1.531     1.320      3.788     77.59531  19.8971         77
 6.35   0.1902    462.6235   1096.4197  11.00     443.3686     0.976     0.807      4.549     77.63045  21.4331         78
 4.43   0.0360    473.5376    734.7532  22.27     2338.378     1.505     1.391      3.956     77.60409  19.6277         79
 4.73   0.0531    472.9802    254.2992 -12.91     1585.824     1.391     1.194      4.392     77.57773  20.0494         80
 4.19   0.0293    479.3217    922.9229  32.84     2878.526     1.511     1.481      3.628     77.60409  19.4021         81
 5.93   0.0838    479.4613   1276.8489 -86.46     1005.279     1.230     1.100      3.413     77.60409  20.5443         82
 5.74   0.0562    514.6971   1309.9906   7.70     1498.761     1.319     1.171      5.419     77.59531  20.1107         83
 4.12   0.0717    485.6152   1070.7526  -8.55     1175.745     1.321     1.259      3.507     77.63923  20.3742         84
 6.54   0.0396    497.5776     83.0067  66.37     2129.393     1.905     1.613      7.957     77.63045  19.7294         85
 6.64   0.0408    496.9010   1187.0255  -1.97     2064.213     1.974     1.349      7.233     77.57773  19.7631         86
 4.90   0.0056    534.4559    518.5499  34.05     15038.02     3.647     3.086     12.141     77.63045  17.6070         87
 3.67   0.0070    513.8845   1302.1998   8.49     12047.68     2.027     1.866      4.240     77.63045  17.8477         88
 7.04   0.0684    505.7164    762.5055 -85.19     1230.826     1.245     1.035      5.979     77.56014  20.3245         89
 5.97   0.1176    503.5783    863.4941  14.81     716.8533     0.923     0.889      2.982     77.61288  20.9114         90
 5.48   0.0343    516.8466   1461.0226  24.80     2456.359     2.970     1.347      9.641     77.64801  19.5743         91
 5.84   0.1297    515.1458   1179.0188 -47.25     650.1784     1.176     1.000      3.538     77.65679  21.0174         92
 7.91   0.1013    511.1125    165.8792  45.76     831.3563     0.843     0.671      5.055     77.56894  20.7505         93
 7.31   0.1757    520.8629    641.8719 -43.04     479.4694     0.842     0.676      5.054     77.57773  21.3481         94
 3.50   0.0003    589.2521   1315.8784 -32.82     326078.6     2.545     2.493      4.345     77.58652  14.2667         95
 3.92   0.0507    541.6472    999.7842  41.53     1661.668     1.306     1.290      3.496     77.64801  19.9986         96
 4.43   0.0359    560.3848   1041.6217  45.42     2345.789     1.536     1.379      3.779     77.61288  19.6243         97
 3.77   0.0114    573.9904   1242.7697  14.96     7414.838     1.808     1.724      4.238     77.65679  18.3747         98
 5.79   0.0547    572.9567   1447.7887  47.55     1540.896     1.602     1.416      5.823     77.63923  20.0806         99
 6.09   0.0546    572.8408     45.9018  54.29     1541.743     1.694     1.258      5.471     77.56894  20.0800        100
 3.82   0.0087    583.6829    319.1039  10.22     9714.819     1.937     1.850      4.094     77.55135  18.0814        101
 3.67   0.0087    582.1736    144.8848 -10.85     9688.867     1.949     1.806      3.995     77.62167  18.0843        102
 3.50   0.0002    632.6119    483.1479 -14.17     402885.9     2.723     2.636      5.102     77.66557  14.0370        103
 8.96   0.2142    566.4742    139.4969 -37.18      393.248     0.501     0.498      3.005     77.56894  21.5633        104
 6.43   0.0602    576.0765   1336.7830  30.80     1401.614     1.349     1.065      6.497     77.66557  20.1834        105
 5.27   0.0176    598.0474    782.5241 -49.02       4795.8     2.863     2.518      9.724     77.59531  18.8478        106
 6.31   0.1272    586.1059     75.9743   1.54     662.5377     1.004     0.858      3.727     77.60409  20.9970        107
 4.83   0.0726   1002.6642   1555.2805 -80.59     1160.309     1.320     1.123      3.550     77.57773  20.3886        108
 6.93   0.0888   1598.2859    654.0801  -4.44     785.9058     1.283     0.698      4.943     64.23985  20.8116        109
 7.14   0.1018   1596.1770    374.0029  36.32     761.5645     0.939     0.470      3.552     71.38905  20.8457        110
 4.11   0.0225   1543.0918    134.7388  -2.70     3746.865     1.670     1.574      4.138     77.60409  19.1158        111
 4.75   0.0659    929.7796   1322.2466  36.33     1278.724     1.163     1.114      3.746     77.64801  20.2831        112
 4.46   0.5372    923.3777    806.9763  76.86     156.9411     1.425     1.204      4.727     77.63923  22.5607        113
 6.36   0.0843    914.1400    838.4391  67.51     1000.025     1.071     0.954      4.502     77.63923  20.5500        114
 7.87   0.1520    913.7532   1001.0084   0.41     554.8876     0.689     0.431      3.199     77.66557  21.1895        115
 4.08   0.0129    901.8284    302.6319  32.47     6545.994     1.843     1.740      3.993     77.64801  18.5101        116
 3.50   0.0003    883.3814    183.6500 -19.82       314989     3.195     3.079      6.890     77.64801  14.3043        117
 6.89   0.0596    897.2708    538.1027  69.70     1413.635     1.425     1.164      5.532     77.59531  20.1742        118
 6.11   0.0204    880.5494    224.1360  88.64     4128.049     6.123     1.673     15.086     77.61288  19.0106        119
 3.50   0.0007    881.6226   1592.4487  65.69     114582.1     2.397     2.351      4.216     77.64801  15.4022        120
 8.03   0.1288    889.9066    325.8675 -44.75      654.317     0.844     0.672      4.187     77.58652  21.0105        121
 4.70   0.0895    887.2526   1499.8967 -51.10      941.315     1.068     1.005      3.809     77.55135  20.6157        122
 7.97   0.0943    887.0178   1304.5103  88.51     893.6332     0.805     0.500      4.095     77.62167  20.6721        123
 6.94   0.0651    880.0314   1176.7563 -66.77     1296.056     1.170     1.034      6.057     77.66557  20.2684        124
 7.44   0.1217    878.8286    960.8246  45.21     692.8987     0.766     0.569      3.597     77.63045  20.9483        125
 4.81   0.0286    870.8043   1103.4138 -32.93      2943.79     1.741     1.609      5.726     77.60409  19.3777        126
 3.50   0.0003    860.6582   1224.3918   9.72     294079.8     2.607     2.563      4.370     77.68313  14.3788        127
 7.51   0.0765    869.3853    940.0309  28.13      1102.06     1.297     0.789      5.739     77.65679  20.4445        128
 6.42   0.0831    861.3013   1157.3337  43.91     1014.637     1.024     0.870      4.467     77.62167  20.5342        129
 6.09   0.1224    859.8855   1339.4011 -27.27     688.4736     1.096     0.578      4.209     77.62167  20.9553        130
 7.01   0.0720    846.0428   1205.9912 -53.00     1171.865     0.803     0.795      4.818     77.64801  20.3778        131
 5.36   0.0599    844.5964   1106.1683  25.00     1406.841     1.276     1.066      5.273     77.64801  20.1794        132
 6.93   0.1207    846.1494   1063.8723  45.80     698.1833     0.835     0.668      3.912     77.57773  20.9401        133
 6.16   0.0375    839.1501   1247.1755 -29.21     2247.782     1.482     1.308      7.244     77.66557  19.6706        134
 4.70   0.0730    838.0167    298.7638   5.94     1155.427     1.395     1.172      3.654     77.65679  20.3931        135
 3.94   0.0127    824.4010    654.3109  37.31     6646.349     1.893     1.787      4.105     77.62167  18.4935        136
 3.65   0.0138    804.4127   1378.5909  18.36     6108.908     1.785     1.710      4.016     77.59531  18.5851        137
 3.54   0.0049    799.9121    695.5764  88.77     17361.85     2.586     2.008      5.323     77.63045  17.4510        138
 4.21   0.0299    802.0409     41.0905 -21.87     2814.923     1.571     1.521      4.041     77.59531  19.4263        139
 5.47   0.0357    775.2255   1427.2784 -85.98     2358.637     2.215     1.593      6.367     77.63045  19.6183        140
 5.37   0.0668    768.0120    391.6290  15.91     1261.672     1.314     1.196      3.167     77.64801  20.2976        141
 4.25   0.0566    744.2063    556.2775 -23.97     1490.382     1.405     1.311      4.059     77.63923  20.1168        142
 6.64   0.1291    739.1788   1157.6746  21.00     653.1128     0.921     0.685      4.218     77.65679  21.0125        143
 6.69   0.1037    737.1107    649.3793 -22.30      813.152     0.925     0.684      3.545     77.61288  20.7746        144
 3.50   0.0002    725.5227    404.7261 -14.90     399698.6     2.719     2.589      4.375     77.58652  14.0457        145
 3.50   0.0012    727.9932    848.3524  23.62     68753.73     2.318     2.276      4.290     77.66557  15.9568        146
 5.28   0.0683    728.8334   1178.1766  42.38     1233.825     1.189     1.040      3.855     77.63923  20.3219        147
 5.28   0.0600    717.2914    808.3470  55.73     1404.378     1.312     1.312      3.932     77.59531  20.1813        148
 4.44   0.0517    710.4481   1163.6825   4.86      1629.94     1.327     1.237      3.990     77.59531  20.0196        149
 5.89   0.0536    705.5657   1338.9106 -81.17     1571.068     1.391     1.282      5.044     77.59531  20.0595        150
 3.99   0.0317    704.2521    952.3856  34.75     2663.024     1.483     1.448      4.053     77.66557  19.4866        151
 8.02   0.0737    692.9650   1213.7378  65.54     1144.128     1.084     0.816      6.098     77.63045  20.4038        152
 4.46   0.0416    686.9780    644.0174  -9.45     2024.617     1.476     1.408      4.113     77.62167  19.7841        153
