#   1 KRON_RADIUS            Kron apertures in units of A or B                         
#   2 MAGERR_APER            RMS error vector for fixed aperture mag.                   [mag]
#   3 Y_IMAGE                Object position along y                                    [pixel]
#   4 X_IMAGE                Object position along x                                    [pixel]
#   5 THETA_IMAGE            Position angle (CCW/x)                                     [deg]
#   6 FLUX_APER              Flux vector within fixed circular aperture(s)              [count]
#   7 A_IMAGE                Profile RMS along major axis                               [pixel]
#   8 B_IMAGE                Profile RMS along minor axis                               [pixel]
#   9 FLUX_RADIUS            Fraction-of-light radii                                    [pixel]
#  10 FLUXERR_APER           RMS error vector for aperture flux(es)                     [count]
#  11 MAG_APER               Fixed aperture magnitude vector                            [mag]
#  12 NUMBER                 Running object number                                     
 3.50   0.0002    181.0222   1105.8365 -40.31     490815.7     6.539     5.885     10.869     77.63923  13.8227          1
 3.68   0.0029     52.4050     61.7681  -2.27     28710.16     6.359     5.786     15.771     77.64801  16.9049          2
 3.50   0.0018     58.9521   1076.9418  81.32     47863.96     2.093     1.972      4.900     77.62167  16.3500          3
 3.50   0.0174     15.7237    983.4587 -87.90     4841.136     4.509     1.979      8.841     77.60409  18.8376          4
 3.50   0.0209     17.0120     89.4810 -42.63     4030.784     1.663     1.619      4.639     77.64801  19.0365          5
 3.50   0.0084     13.8143   1444.2383 -42.28     10089.11     1.721     1.697      4.443     77.65679  18.0404          6
 3.64   0.2112     16.2665    382.9738  86.43     399.1461     1.231     1.191      3.590     77.63923  21.5472          7
 4.95   0.8006     13.1674    839.5089 -76.27     105.2596     1.479     0.949      1.648     77.59531  22.9943          8
 3.64   0.4087      9.2333   1182.3411 -70.45     206.3173     1.026     0.964      2.834     77.64801  22.2637          9
 4.21   1.0188      5.6605   1467.9125   8.54     78.45191     1.152     0.903      3.566     73.59947  23.3135         10
 4.51   0.1895      3.6078    143.2684  59.55     386.9206     1.696     1.490      4.472     67.50071  21.5809         11
 5.88   0.5693      3.6479    183.5916 -38.45     129.1003     1.080     0.962      5.468      67.6823  22.7727         12
 6.99   0.3538      2.5114    843.4935  44.82     194.7456     0.507     0.493      2.824     63.43876  22.3263         13
 6.37   0.3447      1.8622    302.3619  20.33     191.8689     0.906     0.677      4.544     60.90522  22.3425         14
 3.91   0.0940     23.8545    365.4416  -3.18     896.5821     1.390     1.345      4.303     77.62167  20.6685         15
 0.00  99.0000     14.8386   1561.6169 -19.92    -86.75822     0.905     0.686     -5.660     77.65679  99.0000         16
 4.67   4.1283     17.1879   1213.4882  -0.33     20.42388     0.921     0.725      1.605     77.63923  24.7747         17
 7.39   0.3629     15.4944    192.9995 -32.51     232.2568     0.786     0.318      3.518     77.60409  22.1351         18
 4.18   0.2287     33.0747   1108.5681  65.68     368.5401     2.036     1.213      6.380     77.61288  21.6338         19
 3.82   0.1684     23.0219    381.4543   6.25     500.7715     1.319     1.170      4.416     77.66557  21.3009         20
 5.46   1.5122     22.9778    696.8055  -3.26     55.74364     0.886     0.748      3.438     77.62167  23.6845         21
 7.61   2.1126     20.6041    212.2110 -18.94      39.8884     0.744     0.450      3.037     77.59531  24.0479         22
 6.44   0.2795     23.9324   1451.8411 -46.75     301.6321     0.843     0.652      4.021     77.63045  21.8513         23
 4.88   0.2289     32.3874    325.0325 -26.40     368.3087     1.486     1.262      4.961     77.63923  21.6345         24
 7.47   1.2223     26.2151    701.0262  -0.99     68.97586     0.703     0.411      3.598     77.63045  23.4533         25
 6.50   0.4929     33.5743     14.7714 -89.15     171.0594     0.947     0.712      3.313     77.63923  22.4671         26
 3.57   0.9120     37.0450   1519.9745 -74.77     92.48261     1.093     1.076      2.883     77.66557  23.1348         27
 4.28   0.2628     38.0067   1169.0526  23.11     320.9998     1.223     1.198      3.982     77.69191  21.7837         28
 3.71   0.2439     41.6028    913.7512 -64.32     345.8577     1.133     1.039      3.545     77.68313  21.7028         29
 3.50   0.0019     79.0617    535.8607 -66.40     45359.73     1.966     1.931      4.941     77.61288  16.4083         30
 4.97   0.3055     43.5270    438.5287 -52.86     275.7114     1.481     1.242      5.177     77.56014  21.9489         31
 4.10  62.1575     38.6270   1224.5396 -37.16     1.356647     1.156     0.777      2.938     77.64801  27.7188         32
 4.55   0.3078     49.4868    263.5109  89.83     273.7489     1.455     1.089      5.281     77.57773  21.9566         33
 4.50  99.0000     41.5007    999.9727  -1.62      -31.043     0.790     0.500      2.572     77.57773  99.0000         34
 7.08  99.0000     42.5779    226.7772  19.95    -28.92542     0.748     0.450      2.443     77.63045  99.0000         35
 7.84   0.4300     45.7927    473.3825 -71.71     195.9884     0.746     0.449      2.922     77.60409  22.3194         36
 4.11   0.4398     49.4914   1433.9777  -4.26     191.6427     1.069     0.925      3.677     77.60409  22.3438         37
 5.09   3.6334     46.7959   1429.1587  44.33     23.21143     0.809     0.669      2.741     77.65679  24.6357         38
 5.94   1.4390     46.8517    664.8470 -43.30     58.60757     0.825     0.669      4.023     77.65679  23.6301         39
 6.42   0.2863     50.4846    119.9498   0.88     294.2942     0.780     0.500      3.649     77.59531  21.8780         40
 3.52   0.0517     74.1052    126.4799 -19.14      1628.28     1.475     1.433      4.163     77.56894  20.0207         41
 7.34  99.0000     57.4917   1240.0228 -32.67    -80.18949     0.781     0.319      2.740     77.60409  99.0000         42
 4.98   0.4358     64.9824   1146.2659   9.37     193.4804     1.374     1.141      5.300     77.64801  22.3334         43
 7.06   0.3344     68.4563     17.7707  88.90     252.1806     0.996     0.721      5.259     77.65679  22.0457         44
 0.00  99.0000     66.8790   1414.1798 -28.14     -16.4338     0.963     0.744      5.777     77.63923  99.0000         45
 6.93  99.0000     65.5014   1514.5054 -45.69    -178.5715     0.501     0.499      3.003     77.54256  99.0000         46
 5.53   0.5012     70.7447   1320.8502 -68.46     168.2221     0.911     0.682      4.336     77.63045  22.4853         47
 3.50   0.0012    120.9251    787.4896 -59.16      67413.1     2.018     1.992      4.865     77.56894  15.9781         48
 3.90   0.2086     81.3288    419.7149 -76.83     403.8084     1.520     1.278      3.978     77.56894  21.5346         49
 3.94   0.0885     89.6612    375.3916 -19.36     952.8467     2.301     2.014      6.585     77.68313  20.6024         50
 8.71   0.1816     75.8810     80.4187 -26.69     464.2553     1.370     0.840      8.220     77.64801  21.3831         51
 4.79   1.7186     78.7909   1031.8494 -33.64      49.0779     0.892     0.849      2.414     77.66557  23.8228         52
 3.50   0.0003    192.5951    316.2862 -64.39     288669.8     2.878     2.293      5.253     77.62167  14.3990         53
 3.50   0.0345     95.5876     54.3806 -29.57     2439.939     1.614     1.584      4.339     77.61288  19.5816         54
 5.86  99.0000     87.0195   1358.1309 -88.30    -72.88528     0.995     0.847      4.601     77.67435  99.0000         55
 5.84   0.5620     87.4903    757.1628  35.83     149.9385     1.165     1.017      4.533     77.58652  22.6102         56
 6.63   0.5197     82.9746    930.8279  20.66     162.2426     1.160     0.723      4.958     77.63923  22.5246         57
 6.93   0.6848     86.4810    862.1655 -47.77     123.0899     1.108     0.733      6.651     77.62167  22.8244         58
 6.86  99.0000     85.0348   1559.2076  52.97    -112.0524     0.930     0.470      3.760     77.63923  99.0000         59
 6.00   0.4249     90.8526   1043.8802  55.00     198.2666     1.397     0.799      3.266     77.57773  22.3069         60
 3.82   0.5778     90.7001    494.0876   0.64     145.7234     1.105     1.019      3.036     77.53377  22.6412         61
 4.28   0.1402     97.1019    451.1805 -12.65     600.8424     1.924     1.255      6.092     77.58652  21.1031         62
 5.06   0.3930     94.6267   1074.8350  39.51     214.5679     1.336     1.126      3.560     77.63923  22.2211         63
 7.44   0.7698     85.3500    923.3128 -46.64     109.4622     0.575     0.334      2.730     77.58652  22.9518         64
 6.97   0.7522     87.8495    810.6924 -59.25     112.0053     0.869     0.590      4.772     77.57773  22.9269         65
 6.33   0.4135     94.0801    387.5246  89.88     203.8215     0.774     0.499      3.539     77.60409  22.2769         66
 4.03   0.0032    233.9082    401.8713 -47.20     26575.62     8.632     7.090     22.769     77.57773  16.9888         67
 6.55   0.7061    101.8555    517.3245  20.24     119.3396     0.933     0.683      3.085     77.59531  22.8580         68
 5.90   0.3454    112.7964    268.6332  80.50     244.1387     1.522     1.118      5.344     77.64801  22.0809         69
 4.71   0.6062    107.3404    861.3599  41.75     139.0791     0.979     0.859      0.945     77.63923  22.6918         70
 6.49   0.4287    106.1678   1098.1515 -41.98     196.7352     0.806     0.676      3.854     77.65679  22.3153         71
 6.85  99.0000    106.9845   1420.9861 -44.46    -24.75289     0.881     0.534      2.000     77.63045  99.0000         72
 7.78   0.5151    106.4694    180.4571 -48.20     163.6029     0.503     0.495      3.016     77.59531  22.5155         73
 5.35   0.3601    114.2177    414.3000 -75.12     233.9773     1.174     0.927      5.099     77.58652  22.1271         74
 0.00  99.0000    109.9821   1513.4705   1.43    -137.9406     0.806     0.687      4.839     77.66557  99.0000         75
 3.50   0.3379    116.1276    989.3898 -72.21     249.6212     1.139     0.958      3.503     77.66557  22.0568         76
 4.15   0.3683    116.6369    152.4058  53.02     228.9042     1.006     0.952      3.801     77.63923  22.1509         77
 5.52   0.3299    116.3723     65.2133   7.35     255.5889     1.480     0.950      7.113     77.63923  22.0311         78
 3.50   0.0022    161.4548   1466.8241 -54.44     38146.31     1.934     1.900      4.738     77.66557  16.5964         79
 5.02   0.4615    125.2403    492.5927  -6.86     182.7065     1.464     1.092      3.484     77.64801  22.3956         80
 8.11   0.8062    117.6457    911.6918 -47.04     104.4856     0.575     0.334      3.449     77.56894  23.0024         81
 4.68   0.3687    130.2387    416.2955 -27.12     228.4497     1.014     0.997      4.723     77.56894  22.1530         82
 4.35  99.0000    127.1574   1476.9080  43.78    -80.04689     0.822     0.651      1.860     77.56014  99.0000         83
 5.12   3.5756    128.0846    884.0657 -58.07     23.55941     0.780     0.779      3.746     77.56894  24.6196         84
 5.84   0.3391    141.3550    884.3093  52.16     248.4862     2.131     0.964      4.910     77.57773  22.0617         85
 8.30   0.8908    134.6447     97.6783 -46.36     94.60011     0.581     0.330      3.489     77.59531  23.1103         86
 5.23   0.2551    145.7969    352.2505 -48.50     330.7167     1.407     1.153      5.491     77.68313  21.7514         87
 0.00   8.1010    138.1987   1599.6450 -72.96     7.874505     0.752     0.444      4.510     58.73951  25.8094         88
 3.50   0.0096    169.2841    875.6372 -78.34     8747.807     1.768     1.723      4.717     77.62167  18.1953         89
 3.99   0.4396    150.7436   1278.8497  28.32     191.7575     1.078     1.029      3.856     77.62167  22.3431         90
 4.29   0.1267    164.2198   1444.2903  61.79     665.2936     1.450     1.305      4.415     77.62167  20.9925         91
 3.87  99.0000    154.5441     80.6298 -48.01    -40.60986     1.066     0.917      3.473     77.65679  99.0000         92
 6.00  99.0000    155.1815   1578.5652   5.70    -43.51159     0.898     0.727      2.749     77.63923  99.0000         93
 7.51   3.0261    154.5055    822.5117  46.03     27.83183     0.501     0.498      2.013     77.55135  24.4386         94
 3.50   0.1531    165.7383    102.5978 -37.77     550.9887     1.311     1.165      3.697     77.68313  21.1971         95
 4.87   0.4271    165.0086    574.7706  86.48     197.4038     1.251     0.963      3.188     77.63923  22.3116         96
 7.70   0.2067    165.8022   1054.6754 -60.40     408.0872     1.211     1.000      7.269     77.65679  21.5231         97
 8.26   0.3068    159.3821    491.2143  17.93     274.8039     0.756     0.448      4.046     77.63045  21.9524         98
 5.10   0.9164    164.3577   1196.5062  18.24     91.91893     0.945     0.817      3.296     77.56014  23.1415         99
 4.96   0.6126    167.8831    649.7219  36.86     137.5399     1.237     1.028      5.249     77.58652  22.7039        100
 5.03   0.2842    168.4620   1367.5079  -4.70     296.5503     1.259     0.968      4.188     77.60409  21.8698        101
 6.77   0.4490    174.8292   1198.9620 -74.73     187.8177     1.100     0.850      6.493     77.64801  22.3657        102
 4.54   0.2764    179.3327    573.3319  24.33      304.815     1.714     1.330      5.063     77.57773  21.8399        103
 5.66   0.1976    185.8885   1353.4348 -69.02     426.5558     1.580     1.377      6.003     77.61288  21.4751        104
 4.12   0.0887    191.7545   1349.0994  -8.69     949.6888     1.394     1.366      3.966     77.54256  20.6060        105
 6.94   0.2407    189.5625   1026.0391  51.22     350.4493     1.298     1.107      7.629     77.66557  21.6884        106
 8.39   0.3388    182.3929     58.7790 -19.01     248.8261     0.766     0.444      4.263     77.62167  22.0603        107
 3.61   0.0235    209.8589    826.0873  -7.87     3590.277     4.937     2.269      9.564     77.59531  19.1622        108
 3.95   0.0282    229.0334    560.6039 -26.64     2987.012     3.951     3.606     11.380     77.64801  19.3619        109
 7.27   0.6701    186.4370    834.3389  -8.75     125.8214     0.995     0.478      3.245     77.63923  22.8006        110
 5.73   0.2281    194.2279    266.1493  -2.74     369.7943     1.598     1.112      4.874     77.65679  21.6301        111
 3.50   0.0008    258.9285    995.8074 -39.84     102355.5     2.157     2.062      4.907     77.66557  15.5247        112
 5.33   0.0730    207.8602    348.2912  42.92     1154.675     2.172     1.551      8.637     77.58652  20.3939        113
 3.50   0.0474    205.7459    547.4401  30.29     1779.179     1.440     1.435      4.257     77.62167  19.9244        114
 7.23   0.2225    193.8830   1158.3497  19.93     378.6631     0.901     0.693      5.408     77.59531  21.6044        115
 4.67   0.2466    202.5069    249.0628 -82.07     341.6942     1.245     1.125      4.391     77.59531  21.7159        116
 6.30   0.3945    195.0164    447.8040  -1.57      213.638     0.905     0.757      3.960     77.60409  22.2258        117
 3.50   0.0519    211.3949   1304.6354 -22.74     1624.387     1.484     1.447      4.121     77.63923  20.0233        118
 3.50   0.0010    264.9597     65.7597 -32.49     86269.18     2.095     2.035      4.933     77.66557  15.7104        119
 4.14   0.1618    209.9293    683.1187 -66.62     520.5666     1.588     1.287      4.515     77.57773  21.2588        120
 5.97   0.3413    205.0531    940.3129  79.60     246.8231     0.730     0.683      3.425     77.57773  22.0690        121
 6.18   0.4871    204.7234    935.2993 -17.45     172.9201     1.044     0.660      3.083     77.55135  22.4554        122
 5.76   0.5722    204.9661    182.0299 -44.92     147.3557     0.793     0.788      4.482     77.63923  22.6291        123
 6.06   0.0836    221.6865    344.0318  25.49       1008.2     2.076     1.969     10.734     77.63045  20.5411        124
 3.64   0.9091    208.3053   1224.1161  17.48     92.61901     1.017     0.915      3.302     77.53377  23.1332        125
 3.50   0.0383    223.2675   1224.5825 -89.29     2203.745     1.447     1.430      4.045     77.65679  19.6921        126
 6.36   0.7292    216.6158    881.3004 -56.94     115.5837     1.809     0.740     10.852     77.60409  22.8928        127
 6.23   0.2183    216.7369    739.7720 -48.77     386.1685     1.484     1.052      5.690     77.63923  21.5831        128
 3.50   0.0002    311.2113    437.7717 -43.93     352860.5     2.528     2.337      5.235     77.64801  14.1810        129
 3.50   0.1400    221.6353    773.3149 -28.64      602.169     1.304     1.232      3.615     77.63045  21.1007        130
 7.25   1.0862    213.9205    791.8632 -44.17     77.56349     0.851     0.667      3.712     77.57773  23.3259        131
 8.64   0.1993    220.8395    373.6221  32.45     423.0778     1.683     0.981      7.336     77.64801  21.4839        132
 7.72   0.1876    226.6158    323.3230 -86.04      449.622     1.792     0.855     10.282     77.65679  21.4179        133
 4.09   0.0587    243.0104    111.1028 -84.61     1434.673     2.358     1.744      7.104     77.59531  20.1581        134
 4.02   0.0252    254.5417    611.2194 -43.66     3343.952     2.738     2.260      7.261     77.65679  19.2393        135
 7.73   1.1276    220.6618   1401.3055  46.61     74.72506     0.567     0.338      3.402     77.58652  23.3663        136
 6.32   0.2154    229.1916    546.3879 -64.50     391.2881     1.265     1.034      5.390     77.59531  21.5688        137
 4.00   0.1477    238.3424    837.3022  -9.76     570.3144     1.711     1.461      5.587     77.56894  21.1597        138
 3.60  99.0000    232.0458   1551.7197 -75.01    -49.03049     0.719     0.670      2.330     77.59531  99.0000        139
 5.39  95.5254    238.9705   1477.4504 -68.12    0.8828573     1.289     0.924      0.663     77.65679  28.1853        140
 5.53   0.1425    251.0242   1371.4264  88.51     591.5983     1.875     1.660      6.984     77.63923  21.1199        141
 5.00   0.1257    249.4536    105.7782 -15.15     670.6723     1.367     1.268      5.156     77.65679  20.9837        142
 6.38   1.3562    247.8134   1412.9871  26.31     62.14804     1.222     0.976      2.632     77.61288  23.5664        143
 3.56   0.7442    252.4222   1351.3031 -18.77     113.2342     1.077     1.070      3.636     77.59531  22.9151        144
 4.93   1.0697    248.0549    561.1425 -45.10     78.78599     0.823     0.656      2.682     77.60409  23.3089        145
 5.40  99.0000    250.4485   1549.2814 -84.04    -76.68449     0.998     0.957      1.204     77.59531  99.0000        146
 3.50   0.0042    286.7189   1484.9951 -39.03     20258.99     1.874     1.841      4.620     77.63045  17.2835        147
 6.17  23.9309    248.9496    149.9729  73.74     3.524122     0.793     0.788      2.005     77.65679  26.6824        148
 6.83   1.1588    252.4687    693.5012  40.35     72.72285     0.503     0.496      2.449     77.59531  23.3958        149
 3.50   0.0198    281.0660   1520.9102  76.99     4255.777     1.639     1.588      4.392     77.60409  18.9776        150
 6.41   0.4443    264.1126    722.8807 -57.13     189.6405     1.243     0.947      4.576     77.57773  22.3552        151
 3.50   0.0003    350.4285    889.1489 -49.01     312372.1     2.387     2.221      5.078     77.65679  14.3133        152
 3.50   0.0014    317.8304    903.7720 -63.35     59327.51     2.038     1.981      4.853     77.64801  16.1169        153
