#   1 KRON_RADIUS            Kron apertures in units of A or B                         
#   2 Y_IMAGE                Object position along y                                    [pixel]
#   3 MAG_BEST               Best of MAG_AUTO and MAG_ISOCOR                            [mag]
#   4 FLUX_BEST              Best of FLUX_AUTO and FLUX_ISOCOR                          [count]
#   5 X_IMAGE                Object position along x                                    [pixel]
#   6 THETA_IMAGE            Position angle (CCW/x)                                     [deg]
#   7 A_IMAGE                Profile RMS along major axis                               [pixel]
#   8 B_IMAGE                Profile RMS along minor axis                               [pixel]
#   9 MAGERR_BEST            RMS error for MAG_BEST                                     [mag]
#  10 NUMBER                 Running object number                                     
#  11 FLUXERR_BEST           RMS error for BEST flux                                    [count]
 4.25     94.1570  19.5292     2560.403   1124.7493 -68.11     8.199     3.769   0.1731          1     408.1684
 4.95     47.3470  20.9026     722.6698     46.5410 -16.09     3.493     3.138   0.4256          2      283.211
 3.50     32.9521  20.2861     1275.101    449.8849 -71.56     1.861     1.763   0.0936          3     109.9254
 3.50      7.8402  18.5257     6452.422    752.8575 -61.82     2.123     2.040   0.0214          4     127.1806
 7.90      7.3287  23.0849     96.83215   1284.2866 -47.46     0.554     0.344   0.6832          5     60.91562
 0.00      3.8817  99.0000    -10.98389     72.1736 -16.48     1.297     1.175  99.0000          6     98.99538
 7.09      3.6434  24.7348     21.18726    946.9975 -11.20     1.397     0.946   6.4029          7     124.9161
 0.00      2.7658  99.0000    -176.5942    934.9667   5.19     1.486     1.178  99.0000          8     129.7726
 5.98      1.3488  23.6539     57.33643   1254.5757  -1.93     0.882     0.476   1.0451          9     55.17868
 6.38      1.0000  24.9030     18.14648   1325.0350   0.00     0.860     0.289   2.6107         10     43.62258
 8.37     13.0423  24.8577     18.92065    858.5358  89.71     0.808     0.499   5.2521         11     91.50349
 7.51     27.2427  25.3049     12.53271    906.0284  62.58     1.235     1.115  13.2031         12     152.3671
 7.02     19.4468  22.9003     114.7861    234.2249  20.99     0.737     0.451   0.6591         13     69.65967
 8.06     24.1636  26.4186     4.493286    896.5063  -0.34     0.979     0.746  29.0659         14     120.2591
 3.50     32.3549  22.7785     128.4124   1514.8187  89.71     1.186     1.023   0.5595         15     66.15691
 6.47     27.5052  23.9950     41.88037    374.4735  45.86     0.511     0.488   1.4308         16     55.17868
 5.35     33.3109  22.9747     107.1846      7.0528 -29.41     0.877     0.600   0.6776         17     66.87215
 0.00     32.5028  99.0000    -78.73718    914.0272  -0.56     0.785     0.500  99.0000         18     80.43606
 4.86     69.0796  20.4170     1130.323   1463.1573 -72.90     2.832     2.480   0.2143         19     223.0731
 0.00     47.9787  99.0000    -48.63293    228.2468  34.97     0.788     0.492  99.0000         20     51.61493
 5.48     49.6894  22.5611     156.8798    343.8810 -30.33     0.884     0.599   0.4869         21     70.33929
 0.00     48.6995  99.0000    -33.58325   1227.5970 -41.42     0.589     0.322  99.0000         22     23.89307
 8.16     50.9994  22.3301     194.0648    205.2584  89.97     0.683     0.438   0.4333         23     77.42239
 0.00     63.4169  99.0000     -262.054    888.7960 -31.82     3.064     0.817  99.0000         24     142.3594
 4.55     61.9151  22.6504     144.4915   1014.1193  49.58     1.303     1.242   0.7477         25     99.47478
 3.50     95.2679  18.8347     4854.199    916.6253 -19.93     2.422     2.058   0.0301         26     134.4538
 0.00     64.5669  99.0000    -4.843628    893.1599 -16.96     2.011     0.917  99.0000         27     43.62258
 6.77     80.7907  22.1215     235.1798    541.1888 -68.13     2.157     1.464   0.9597         28     207.8377
 4.77     65.6199  23.3664     74.71899    970.7142 -47.07     1.062     0.962   1.2278         29     84.47475
 5.02     77.5636  21.5228     408.2209    183.5630  37.16     1.710     1.612   0.3796         30     142.6932
 3.55     94.6228  21.3358     484.9132    346.8269 -35.99     1.677     1.593   0.2270         31     101.3697
 5.25     93.1689  22.9804     106.6222    737.2796  14.59     1.251     1.167   1.1063         32     108.6193
 8.20     88.5198  23.6246     58.90637   1025.5172  44.87     0.510     0.489   1.2968         33     70.33929
 4.37    106.6651  21.0651      622.234    973.7143 -40.27     2.136     1.690   0.2496         34     143.0262
 3.53    106.5207  21.5819     386.5715     47.5245 -36.46     1.582     1.560   0.2671         35      95.0732
 0.00    100.5170  99.0000    -70.30078    356.8520 -25.56     1.159     1.063  99.0000         36     126.0534
 0.00     98.5842  99.0000    -27.62512    326.1557 -76.66     1.017     0.724  99.0000         37     50.68485
 0.00     94.3919  99.0000    -20.52026   1248.7111 -17.31     0.722     0.459  99.0000         38     63.96325
 8.16     99.6920  24.2140     34.22986    173.3035  45.27     0.553     0.345   1.9573         39     61.69164
 8.06    106.0233  23.2959     79.73486    266.4735 -26.77     1.097     0.647   1.6163         40     118.6662
 4.83    115.4942  22.8216     123.4175    924.7029  69.09     1.227     1.049   0.8366         41      95.0732
 3.66    125.6434  22.2917     201.0653    300.7448 -25.91     1.673     1.549   0.5526         42      102.304
 0.00    110.8920  99.0000    -82.19678   1457.8762 -43.13     0.852     0.658  99.0000         43      67.5798
 0.00    118.1392  99.0000    -51.12756     79.4567  35.20     1.594     1.028  99.0000         44     122.9971
 5.84    111.6869  23.1375     92.25916   1000.3212  44.58     0.563     0.341   0.5262         45     44.69984
 7.47    113.3548  24.6277     23.38464    460.6852  46.69     0.578     0.332   2.5625         46     55.17868
 4.38    114.4853  22.4126     179.8629     65.9743   2.48     0.781     0.499   0.2885         47     47.78614
 3.50    151.1911  19.2180     3410.293     45.4971 -66.61     2.041     1.875   0.0596         48     187.1656
 3.50    212.7002  16.2725     51405.66    966.9963  67.45     3.034     2.400   0.0034         49     163.2207
 0.00    130.1674  99.0000    -2.426636     55.4243  86.66     1.181     0.973  99.0000         50     83.90971
 5.19    133.8928  24.8263      19.4751   1498.3713  36.64     1.003     0.833   4.6154         51     82.76802
 0.00    135.5188  99.0000    -47.28613    735.5063 -70.98     0.956     0.414  99.0000         52     61.69164
 3.50    140.9441  23.7244     53.73083    218.5828  77.42     1.254     0.994   1.3659         53      67.5798
 4.75    158.6899  17.9692     10772.45     50.1477  10.83     2.348     2.026   0.0214         54     211.8974
 4.56    173.5511  21.7301     337.2515    556.9188  77.23     2.496     2.317   0.6091         55      189.143
 6.34    144.6918  24.5893      24.2262   1194.3496  43.12     0.573     0.335   2.2721         56     50.68485
 4.48    152.7633  23.5880     60.92773    879.2148 -71.16     0.960     0.844   1.2658         57     71.01241
 4.57    183.9569  21.4276     445.5979   1262.7585 -84.47     2.679     2.323   0.4825         58     197.9908
 5.32    164.2391  23.1032     95.22156   1521.2362 -68.47     1.229     1.012   1.1721         59      102.768
 5.85    166.0432  23.2174     85.71191    745.9159 -22.96     1.387     1.130   1.5827         60     124.9161
 5.41    163.4534  24.4997     26.30957   1154.1659  29.17     1.143     0.805   3.6902         61     89.39968
 3.50    185.4392  20.3759     1173.896    377.8520  44.06     1.855     1.791   0.1021         62     110.3574
 0.00    169.3121  99.0000    -117.4944   1159.0532  72.00     1.088     0.734  99.0000         63     106.4069
 5.72    164.5888  23.3809     73.72632    871.5212 -37.71     0.510     0.481   0.7326         64     49.73739
 6.12    173.3908  22.7364     133.4856    944.2777  23.96     1.450     1.084   1.0735         65     131.9538
 7.83    164.0000  23.4894     66.71924    757.9688   0.00     0.857     0.289   1.1339         66     69.65967
 6.57    174.5070  23.8182     49.28589    961.2061 -89.43     0.936     0.726   2.0616         67     93.56001
 3.50    237.4089  16.8614     29883.68   1389.3002 -60.89     2.351     2.198   0.0050         68     138.2911
 0.00    188.7956  20.2962     1263.281   1070.2379 -66.16     1.461     1.296   0.0834         69     96.97417
 0.00    195.9452  99.0000    -479.2159   1065.9102 -53.12     1.931     1.731  99.0000         70     213.0372
 4.45    205.1032  18.9331       4433.5    985.2596 -83.24     1.782     1.741   0.0418         71     170.7059
 3.57    206.2079  21.4457     438.2361     21.3743 -77.09     1.693     1.604   0.2535         72      102.304
 4.34    201.3544  22.0634     248.1073    185.4896  86.30     1.485     1.274   0.4559         73     104.1475
 7.05    189.0036  23.8923     46.03357   1594.2350 -89.83     0.680     0.424   1.5264         74     64.70274
 0.00    191.5366  99.0000    -51.34521   1097.4672  44.41     0.505     0.492  99.0000         75     39.01722
 3.50    224.9645  19.8681     1873.885   1092.9434 -75.05     1.945     1.811   0.0662         76     114.1712
 4.38    204.9958  21.6112     376.2812    353.2603  49.54     1.546     1.354   0.3173         77     109.9254
 6.59    201.9016  22.2327     212.2892    411.7759  22.68     1.623     1.125   0.7874         78     153.9203
 0.00    201.7012  99.0000    -24.10632   1294.1659 -70.66     1.030     0.553  99.0000         79      95.0732
 3.95    219.1305  21.5729     389.8114   1020.2579 -10.95     2.049     1.908   0.3795         80     136.2115
 3.90    216.9382  22.1999     218.7982   1198.2729 -67.75     1.806     1.434   0.5348         81     107.7398
 4.80    209.8886  23.5704     61.92065    908.2451 -60.11     1.031     0.637   1.1975         82     68.28014
 4.71    268.0666  20.8146     783.7246    140.2715  63.45     5.455     1.957   0.3682         83     265.7041
 3.88    223.2836  22.5640      156.465   1178.1260  36.13     1.421     1.146   0.6018         84     86.69816
 6.87    213.4799  23.7023     54.83545   1061.5094  44.65     0.512     0.487   1.0928         85     55.17868
 5.89    243.6765  21.6228     372.2856    660.2729  56.74     2.330     2.070   0.6514         86     223.2862
 0.00    232.5093  99.0000    -133.2666    654.0221   4.33     2.686     1.524  99.0000         87     252.1068
 3.64    243.0972  21.0755     616.3232    566.2015  29.51     1.831     1.749   0.2012         88     114.1712
 3.50    258.9529  20.0646     1563.778   1426.3889 -55.02     2.082     1.737   0.0787         89     113.3348
 4.32    236.7304  21.5768     388.3861    836.5421 -23.65     1.479     1.402   0.2975         90     106.4069
 4.43    234.4972  22.7551     131.2125    879.8083 -56.66     1.317     1.124   0.7701         91     93.05014
 3.65    247.8586  18.1458     9155.199    576.9484  28.21     1.725     1.657   0.0227         92      191.507
 5.68    241.6002  23.0886     96.50818    368.8590 -66.00     1.584     1.499   1.7111         93     152.0546
 0.00    231.4599  99.0000    -12.45569   1316.5281 -43.68     0.508     0.490  99.0000         94      33.7899
 6.87    256.0625  22.0310     255.6309     76.0572 -78.27     2.310     1.137   0.8215         95     193.3716
 3.82    286.3719  19.8003     1994.746   1328.0706 -62.90     3.890     3.155   0.1256         96     230.6228
 5.62    254.1811  21.6067     377.8459   1369.5127 -46.50     1.972     1.808   0.5275         97     183.5262
 4.51    238.3008  24.9238     17.80212   1316.6440  42.47     0.572     0.335   2.0613         98      33.7899
 7.32    243.0217  21.9964     263.9014    966.3827 -11.22     1.220     0.776   0.5062         99     122.9971
 8.17    249.4651  22.8862     116.2789   1163.2465 -87.55     1.011     0.708   1.1120        100     119.0665
 4.76    251.7740  23.7115     54.37451    914.5338 -22.40     1.742     0.609   1.7095        101     85.59367
 6.79    262.3152  21.6610     359.4211    410.3904 -36.29     1.932     1.068   0.5088        102     168.3854
 4.93    296.6697  20.5990     955.8622    374.3661  32.26     5.369     2.131   0.3276        103     288.3713
 4.63    279.1549  21.6115     376.1974   1128.3959 -42.43     2.378     1.745   0.4703        104      162.929
 5.14    265.0267  22.4620     171.8771    271.3459  62.87     1.163     0.935   0.5879        105     93.05014
 0.00    265.3846  99.0000    -22.64172    721.8150  85.12     0.992     0.380  99.0000        106     43.62258
 5.52    266.8948  23.9001     45.70667    766.6589  13.69     1.008     0.750   1.9802        107     83.34081
 0.00    267.8004  99.0000    -11.49609   1587.3848 -72.59     0.760     0.451  99.0000        108     59.33312
 3.50    281.3238  21.9743     269.3383    954.9826 -84.42     1.527     1.520   0.3752        109     93.05014
 3.50    286.3437  22.2801     203.2079    743.1180  68.50     1.558     1.417   0.4778        110     89.39968
 0.00    279.5313  99.0000    -13.79517    885.4368 -74.77     0.499     0.496  99.0000        111     43.62258
 4.28    313.5876  21.1489     576.0468    792.2487  34.69     2.350     1.960   0.3005        112     159.3867
 6.52    298.8550  22.8992     114.9043    863.1819   4.80     1.090     0.985   1.0986        113      116.236
 3.50    338.2658  19.5183     2586.244    595.9975  86.26     1.988     1.823   0.0486        114      115.826
 3.50    374.0516  16.7582     32865.29   1262.5981 -43.64     2.343     2.212   0.0045        115     137.6014
 0.00    314.6675  20.8809     737.2706    802.7544 -18.94     1.737     1.419   0.1683        116     114.2882
 3.50    332.8217  20.5440     1005.575    788.9773  77.38     1.801     1.696   0.1135        117     105.0571
 7.92    310.6430  25.5229     10.25305   1549.2216 -16.94     0.748     0.446   8.3935        118     79.24435
 0.00    323.1217  99.0000    -162.2281    832.5522  78.74     1.122     1.038  99.0000        119     112.9142
 5.08    323.1987  21.8954     289.6371    288.7291  15.01     1.259     1.110   0.3871        120     103.2299
 3.58    335.5175  22.0582     249.3053   1145.5067  -3.58     2.145     1.792   0.5273        121     121.0477
 4.64    328.8070  22.2497     208.9834    720.3349   3.49     1.256     1.173   0.5144        122     98.99538
 7.17    326.4636  23.2146     85.93127    156.8145  84.35     1.010     0.378   0.9469        123     74.92424
 5.31    334.9207  23.5721     61.82703    661.6074  26.59     1.595     1.397   2.4048        124     136.9082
 0.00    335.5432  99.0000    -204.5334   1037.4845 -50.33     1.435     0.834  99.0000        125     125.2963
 4.62    361.3767  21.2151     541.9684    708.3899 -68.65     2.379     2.219   0.3683        126     183.7852
 0.00    347.7137  99.0000    -52.79907   1598.6823 -79.01     1.124     0.968  99.0000        127     104.6033
 3.60    375.0627  20.3397     1213.757   1363.9340   2.09     3.088     2.411   0.1519        128     169.7922
 5.22    360.9517  22.0658     247.5601    640.6298  75.08     1.416     1.325   0.5446        129      124.152
 0.00    348.8523  99.0000    -81.40723   1576.8534  47.93     0.767     0.569  99.0000        130     82.19123
 3.50    363.9760  22.5723     155.2656    504.0932 -14.26     1.535     1.436   0.6364        131      90.9821
 0.00    358.2023  99.0000    -14.14551   1050.3724  72.23     0.754     0.446  99.0000        132      90.4577
 0.00    369.4063  99.0000    -33.98645   1341.4336  28.52     1.585     0.990  99.0000        133     125.2963
 7.95    359.4590  22.5916     152.5364   1094.5118 -21.09     0.500     0.498   0.5008        134     70.33929
 7.06    369.6529  23.2972     79.63647    643.0444 -67.01     1.486     0.435   1.3368        135     98.02955
 0.00    363.6567  99.0000    -166.7736     97.3249  45.78     0.578     0.333  99.0000        136     63.21512
 3.56    389.2385  21.0991     603.0471   1463.0966  57.58     1.796     1.631   0.1884        137     104.6033
 4.08    401.0529  20.9690     679.8018    824.7330  48.37     3.253     2.740   0.3375        138     211.2432
 4.81    377.7523  23.0073     104.0104    162.8285 -35.17     1.129     1.085   0.9608        139     92.02193
 3.50    385.9117  22.9279     111.9071    867.6343 -73.67     1.442     1.322   0.8198        140     84.47475
 6.46    383.3534  23.7517     52.39929   1277.6696  75.68     1.166     1.055   2.5889        141     124.9161
 3.50    392.8899  22.6515     144.3444   1317.5302 -48.64     1.483     1.396   0.6564        142     87.24516
 4.52    451.1505  20.9138     715.3107   1219.8578  56.07     6.476     2.500   0.4762        143     313.6582
 3.50    413.7905  19.8009      1993.61     67.1341 -60.83     1.974     1.853   0.0633        144      116.236
 6.39    391.2280  23.3107     78.65381   1206.1643 -88.79     1.130     0.746   1.3866        145     100.4267
 3.50    417.1918  19.4359     2790.343   1307.9253  37.73     1.929     1.914   0.0452        146      116.236
 0.00    413.1869  99.0000    -104.9016    665.6929  81.38     1.328     0.991  99.0000        147     141.6895
 0.00    410.2010  99.0000    -126.3762    749.6277 -26.28     1.191     0.770  99.0000        148     123.3833
 3.50    458.0979  18.0393     10098.72     12.4038 -59.41     2.124     2.082   0.0136        149      126.806
 7.10    420.3788  22.5997      151.397    101.8098  71.35     1.223     0.902   0.9230        150     128.6681
 8.84    415.5115  27.4790     1.692017   1157.4949 -44.64     0.504     0.496  48.4950        151     75.55652
 8.79    420.2401  23.2079     86.46667    890.9982   1.82     0.800     0.551   1.2732        152     101.3697
 7.59    421.2487  22.8805     116.8928   1572.0276  -1.34     0.693     0.432   0.6597        153     71.01241
 0.00    425.6347  99.0000     -9.88855    962.6557 -44.37     0.851     0.522  99.0000        154     81.02534
 3.75    439.7845  22.6931     138.9226    908.6335 -52.06     1.883     1.435   0.8318        155     106.4069
 3.50    466.2373  18.7235     5377.858   1074.6401 -82.23     2.009     1.929   0.0242        156     119.8629
 4.93    439.3988  23.7185     54.02722    814.9534 -86.52     0.990     0.950   1.6867        157     83.90971
 4.06    450.3367  22.7388     133.1958    174.3367  24.26     1.781     1.447   0.9241        158     113.3348
 3.66    449.1495  22.3393     192.4396    290.5052  -2.34     1.266     1.220   0.4472        159     79.24435
 3.75    462.7975  21.7877      319.818    275.5684  22.46     1.563     1.439   0.3329        160     98.02955
 4.60    457.7794  26.5083     4.136841   1159.6694  30.96     1.323     1.096  25.4786        161     97.05411
 4.24    464.8949  27.8981     1.150146   1190.3889  89.16     1.284     1.008  78.6927        162     83.34081
 5.44    462.5362  22.5186     163.1414   1091.4558  46.22     1.073     0.828   0.5916        163     88.86594
 7.04    458.3414  23.4898     66.69226    977.3062 -46.69     0.569     0.338   0.8405        164     51.61493
 3.50    488.4671  20.7628     822.0001    573.8985  65.18     1.749     1.715   0.1370        165     103.6897
 3.50    478.8458  23.0146     103.3126   1017.2892 -36.08     1.346     1.227   0.8203        166     78.03444
 6.16    474.5374  23.3027     79.23523   1137.3838  51.60     1.144     0.789   1.3829        167     100.8993
 7.74    473.0392  24.3100     31.33362    250.0121 -88.81     0.629     0.610   2.8083        168     81.02534
 8.05    480.7053  22.4742     169.9548   1570.9915 -56.06     1.184     0.443   0.6417        169     100.4267
