#   1 KRON_RADIUS            Kron apertures in units of A or B                         
#   2 MAGERR_APER            RMS error vector for fixed aperture mag.                   [mag]
#   3 Y_IMAGE                Object position along y                                    [pixel]
#   4 X_IMAGE                Object position along x                                    [pixel]
#   5 THETA_IMAGE            Position angle (CCW/x)                                     [deg]
#   6 FLUX_APER              Flux vector within fixed circular aperture(s)              [count]
#   7 A_IMAGE                Profile RMS along major axis                               [pixel]
#   8 B_IMAGE                Profile RMS along minor axis                               [pixel]
#   9 FLUX_RADIUS            Fraction-of-light radii                                    [pixel]
#  10 FLUXERR_APER           RMS error vector for aperture flux(es)                     [count]
#  11 MAG_APER               Fixed aperture magnitude vector                            [mag]
#  12 NUMBER                 Running object number                                     
 4.48   0.0006     54.1134     63.6375   5.15     146566.1     4.168     3.795     13.047     83.77448  15.1349          1
 4.18   0.0038     17.2518    984.8208 -88.85     24230.31     3.632     1.613      8.512     83.80292  17.0891          2
 3.73   0.0045     18.7921     91.0527 -67.39     20314.75     1.546     1.431      4.296     83.84082  17.2805          3
 3.50   0.0017     15.4424   1445.5559 -62.54     52710.18     1.650     1.566      4.133     83.81239  16.2453          4
 5.77   0.0297     18.1645    384.1515  44.06     3065.252     0.761     0.567      3.513     83.79344  19.3338          5
 4.27   0.0209     25.5739    366.8953 -14.68     4351.422     1.150     0.962      3.810     83.75552  18.9534          6
 3.50   0.0004     60.5962   1078.2424  76.97     238504.7     1.998     1.878      4.458     83.81239  14.6063          7
 7.73   0.0659     43.3143    915.3513 -43.40     1380.634     0.576     0.333      2.435     83.74603  20.1998          8
 3.50   0.0004     80.9674    537.4247 -67.18     229299.1     1.917     1.816      4.628     83.78396  14.6490          9
 3.50   0.0000    182.7543   1107.3114 -33.84      2371044     5.320     4.706      9.903     83.73655  12.1126         10
 4.26   0.0108     76.0034    127.7169  10.01     8459.103     1.188     1.148      4.007     83.78396  18.2317         11
 3.50   0.0003    122.5943    788.9246 -61.36     341495.6     2.004     1.876      4.519     83.83134  14.2165         12
 4.04   0.0072     97.4281     55.9913  22.71     12661.61     1.346     1.270      4.262     83.79344  17.7938         13
 8.23   0.0195     90.8850    376.7019 -20.39     4659.435     0.956     0.688      5.509     83.68911  18.8792         14
 3.50   0.0001    194.4246    317.8832 -61.43      1459520     2.286     2.051      4.752     83.77448  12.6395         15
 3.50   0.0005    163.1353   1468.1381 -62.55     193935.2     1.875     1.794      4.419     83.74603  14.8309         16
 3.50   0.0021    171.1655    877.1136 -49.92     43405.12     1.630     1.557      4.359     83.77448  16.4561         17
 4.79   0.0210    165.7308   1445.5076   4.02     4340.288     0.992     0.930      3.904     83.73655  18.9562         18
 5.69   0.0105    172.4128    325.0309 -77.11     8690.202     1.272     1.156      6.268     83.81239  18.2024         19
 4.93   0.0330    167.6038    104.1795 -53.71     2753.125     1.013     0.798      3.602     83.77448  19.4504         20
 4.76   0.0007    235.9160    403.1274 -54.98     135085.2     4.971     4.426     17.031     83.71758  15.2235         21
 4.98   0.0165    193.4423   1350.3160 -32.41     5508.241     1.126     0.910      4.003       83.765  18.6975         22
 5.44   0.0050    211.5265    827.6342  -7.65        18374     2.457     1.586      9.228       83.765  17.3895         23
 4.12   0.0100    207.4942    548.9372 -80.12     9119.584     1.310     1.143      4.061     83.74603  18.1501         24
 7.25   0.0421    204.4811    250.5076  36.96     2160.034     0.500     0.499      3.002     83.75552  19.7138         25
 6.64   0.0151    209.4116    349.7701  22.88     6029.002     1.196     0.965      5.807     83.81239  18.5994         26
 3.50   0.0099    213.0077   1305.9434 -30.97     9187.594     1.201     1.190      3.615      83.8503  18.1420         27
 8.44   0.0342    211.2228    684.6010 -71.57     2662.062     0.753     0.451      4.009     83.77448  19.4870         28
 5.97   0.0058    230.9360    562.0312  11.84     15716.69     2.312     2.091     10.023     83.79344  17.5591         29
 6.71   0.0065    229.8141    414.8990 -71.47     14005.64     1.710     1.547     10.007     83.75552  17.6842         30
 4.37   0.0087    224.6008   1225.8378 -85.78     10426.26     1.311     1.279      3.998     83.77448  18.0047         31
 4.83   0.0255    223.2310    774.5986 -29.44     3570.128     1.026     0.798      3.577       83.765  19.1683         32
 3.50   0.0002    260.5680    997.2263 -60.60     592443.2     2.037     1.924      4.546     83.78396  13.6184         33
 9.13   0.0197    223.0016    345.4901 -88.29     4610.545     0.803     0.500      4.820     83.74603  18.8906         34
 3.50   0.0002    266.6997     67.3946 -76.33     436719.6     1.982     1.886      4.659       83.765  13.9495         35
 6.52   0.0129    244.6537    112.8341  75.03     7061.931     1.395     1.155      6.638     83.80292  18.4277         36
 5.17   0.0052    256.3477    612.7624 -34.58      17439.2     1.872     1.547      6.791     83.79344  17.4462         37
 7.49   0.0284    251.4937    107.4909 -45.11     3204.424     0.506     0.494      3.033     83.70808  19.2856         38
 8.17   0.0257    252.6854   1372.6636 -43.97     3538.011     0.570     0.337      3.099     83.73655  19.1781         39
 3.50   0.0001    313.2004    439.2152 -61.04      1718802     2.247     2.086      4.899       83.765  12.4619         40
 3.50   0.0009    288.3480   1486.2738 -54.17     103713.9     1.751     1.674      4.288     83.72706  15.5104         41
 3.50   0.0039    282.7493   1522.1841 -61.33     23190.24     1.460     1.360      3.947     83.82187  17.1367         42
 5.11   0.0103    290.6356    514.7411 -36.50     8831.046     1.462     1.311      5.310     83.79344  18.1850         43
 3.50   0.0012    303.9778    201.5832 -66.85     75475.23     1.714     1.615      4.439     83.77448  15.8555         44
 3.50   0.0003    319.4937    905.2718 -62.35     298755.3     1.956     1.848      4.567     83.73655  14.3617         45
 4.02   0.0092    294.7511   1327.3948  47.22      9901.21     1.274     1.263      4.084     83.84082  18.0608         46
 6.28   0.0181    294.3224   1475.1021  11.40      5017.41     0.727     0.658      3.701     83.71758  18.7988         47
 8.31   0.0184    297.8722   1413.8578 -46.31     4930.667     0.853     0.671      5.119     83.74603  18.8177         48
 3.50   0.0001    352.2238    890.5839 -55.85      1570708     2.209     2.073      4.732     83.77448  12.5598         49
 3.50   0.0001    352.2397   1345.7283 -55.48      1490896     2.185     2.061      4.709     83.78396  12.6164         50
 6.53   0.0214    303.0704    563.5995 -17.06     4248.258     1.007     0.742      4.363     83.82187  18.9795         51
 3.50   0.0018    322.8800    697.1052 -48.65     50280.41     1.600     1.557      4.269     83.71758  16.2965         52
 7.23   0.0223    322.3919    640.9913 -72.88     4076.029     1.533     0.349      3.785     83.74603  19.0244         53
 4.85   0.0096    328.2270    595.3594  12.77     9512.947     1.342     1.284      5.208     83.82187  18.1042         54
 3.88   0.0026    347.1299    866.8550 -43.34     34763.42     1.633     1.498      4.513     83.74603  16.6972         55
 6.55   0.0435    332.9962     93.4646 -88.40     2092.188     0.778     0.498      3.525     83.83134  19.7485         56
 5.92   0.0413    336.1976   1440.3890  71.88     2203.249     0.728     0.454      3.509     83.75552  19.6923         57
 3.94   0.0033    356.6004    431.5988 -75.33     27921.27     1.788     1.580      5.018     83.80292  16.9352         58
 4.14   0.0186    350.8954     54.4239  75.90     4883.462     1.126     0.959      3.817       83.765  18.8282         59
 3.50   0.0018    368.9802    760.8908 -58.40     51854.59     1.598     1.559      4.233       83.765  16.2630         60
 3.76   0.0046    368.2882    442.6587 -56.28     19730.43     1.435     1.336      4.189     83.73655  17.3122         61
 3.62   0.0096    362.0505   1500.2076 -24.28     9437.766     1.284     1.149      3.634     83.82187  18.1128         62
 5.05   0.0374    361.3106   1033.9282 -13.90      2429.27     0.739     0.661      3.155     83.73655  19.5863         63
 3.50   0.0004    396.0200    231.2718 -61.09     253698.1     1.874     1.819      4.610     83.83134  14.5392         64
 5.48   0.0301    373.7695    992.0414 -88.68     3024.146     0.894     0.751      3.839     83.82187  19.3485         65
 3.50   0.0025    397.8937   1461.0099 -39.50     36391.33     1.563     1.472      4.095       83.765  16.6475         66
 3.50   0.0022    399.0078    354.3785 -71.51     41183.47     1.585     1.493      4.253     83.77448  16.5132         67
 3.66   0.0105    394.5766   1088.5724 -29.99     8679.343     1.284     1.233      3.868     83.79344  18.2038         68
 3.50   0.0008    416.4507    837.1747 -64.92     112020.9     1.798     1.680      4.411     83.83134  15.4268         69
 3.50   0.0004    420.3988    433.1456 -58.39     231990.1     1.886     1.783      4.537     83.84082  14.6363         70
 3.75   0.0045    425.0381    926.1504 -47.65     20115.59     1.483     1.353      4.110     83.79344  17.2912         71
 3.50   0.0011    438.7664    251.9352 -45.10      82598.8     1.713     1.632      4.422     83.78396  15.7576         72
 6.61   0.0190    421.7399    158.5126  -7.53     4780.392     1.013     0.987      5.285     83.73655  18.8513         73
 3.50   0.0001    461.8574    807.3825 -54.53     719188.7     2.057     1.941      4.488     83.79344  13.4079         74
 3.76   0.0136    433.8073   1421.8584  31.89     6680.708     1.177     1.104      3.744     83.84082  18.4879         75
 8.40   0.0327    427.5076   1179.4756  48.21     2784.196     0.502     0.497      3.012     83.72706  19.4382         76
 6.16   0.0348    434.9740    150.9762  35.97     2612.782     0.787     0.769      4.007     83.80292  19.5072         77
 4.40   0.0328    440.6718    305.3953 -46.54     2771.784     0.991     0.875      3.568     83.82187  19.4431         78
 3.73   0.0035    451.1180     21.1858 -35.06     26254.82     1.529     1.416      4.360     83.80292  17.0020         79
 5.41   0.0042    468.5997    850.2263  23.11     21508.51     5.828     1.566     16.438       83.765  17.2185         80
 6.23   0.0215    446.1815    121.9023 -14.29     4221.721     1.080     0.836      4.812       83.765  18.9863         81
 3.57   0.0031    458.6487     34.3971 -57.41     29487.52     1.520     1.448      4.262     83.84082  16.8759         82
 8.14   0.0203    448.2517    883.8757  -7.80     4472.416     1.041     0.643      5.748     83.72706  18.9236         83
 3.80   0.0098    464.5070    468.4641 -52.99     9310.095     1.324     1.266      4.115     83.75552  18.1276         84
 5.86   0.0288    461.8690   1096.1428  45.45     3156.698     0.823     0.671      4.002     83.74603  19.3019         85
 3.98   0.0078    472.9391    734.7498 -68.45     11671.53     1.361     1.217      4.188       83.765  17.8822         86
 4.43   0.0109    472.1027    253.9982 -64.88     8350.876     1.241     1.108      4.148       83.765  18.2457         87
 3.50   0.0060    478.7898    922.8477 -20.02     15130.74     1.403     1.353      3.996     83.82187  17.6003         88
 4.07   0.0157    478.8117   1276.7957 -50.21     5784.002     1.136     1.024      3.713     83.74603  18.6444         89
 3.50   0.0143    485.0125   1070.3956 -46.82     6347.058     1.195     1.127      3.692     83.74603  18.5436         90
 5.91   0.0085    496.9854     82.8541  55.90     10761.46     1.818     1.496      7.633     83.82187  17.9703         91
 5.91   0.0085    496.5325   1187.0388 -13.62     10696.01     2.128     1.330      7.854     83.78396  17.9769         92
 3.50   0.0015    513.2896   1302.2393 -42.36     61753.01     1.658     1.592      4.428     83.74603  16.0734         93
 4.84   0.0012    533.8892    518.5785  30.84     74982.55     3.346     2.728     11.376     83.77448  15.8626         94
 6.60   0.0141    505.0350    762.6558 -88.65     6465.577     1.252     1.016      5.972     83.79344  18.5235         95
 4.63   0.0226    502.7391    863.4894 -40.17     4031.496     0.963     0.954      3.654     83.74603  19.0363         96
 6.18   0.0555    499.0000    365.9927   0.00     1639.822     0.843     0.289      2.113     83.74603  20.0130         97
 5.71   0.0069    516.2209   1461.1857  26.90     13222.68     2.828     1.249      9.670       83.765  17.7467         98
 5.94   0.0299    502.4906   1309.9664  -3.30     3045.983     0.785     0.499      3.246     83.75552  19.3407         99
 4.97   0.0149    514.1891   1310.0686  12.56     6100.428     1.453     1.166      4.039     83.83134  18.5866        100
 7.49   0.0240    510.6530    165.5925   6.25     3800.112     1.008     0.636      5.786      83.8503  19.1005        101
 4.21   0.0230    514.4960   1179.0830 -43.70     3951.916     1.130     0.881      3.508     83.69859  19.0580        102
 6.59   0.0311    520.1537    641.3141 -60.97     2922.905     0.857     0.594      4.033       83.765  19.3855        103
 4.14   0.0101    541.0002    999.6945 -62.31       9049.3     1.250     1.160      4.040       83.765  18.1585        104
 3.50   0.0001    588.6879   1315.8539 -55.49      1604604     2.187     2.068      4.714     83.73655  12.5366        105
 3.68   0.0074    559.7887   1041.5302 -54.92     12360.02     1.373     1.305      4.062     83.82187  17.8200        106
 3.60   0.0025    573.4073   1242.7402 -36.74     36840.54     1.543     1.528      4.236     83.84082  16.6342        107
 3.50   0.0018    581.4571    144.8192 -63.56     49550.96     1.639     1.537      4.347     83.79344  16.3124        108
 5.40   0.0109    571.8488     45.7987  65.71     8372.691     1.497     1.163      5.714     83.84082  18.2428        109
 7.49   0.0391    565.9841    139.5040 -87.66     2329.646     0.791     0.499      4.267     83.77448  19.6318        110
 5.53   0.0106    572.0419   1447.5493  18.02     8593.853     1.733     1.229      6.583     83.80292  18.2145        111
 3.50   0.0018    583.0026    319.0012 -42.00     49489.56     1.607     1.563      4.380     83.80292  16.3137        112
 3.50   0.0000    631.9539    483.1635 -57.26      2477026     2.648     2.496      5.259     83.81239  12.0652        113
 5.70   0.0130    575.7169   1336.6877 -52.10     7018.628     1.150     1.091      5.189     83.72706  18.4344        114
 5.48   0.0039    597.8709    782.6802 -74.06     23045.22     2.429     2.215      9.939     83.73655  17.1435        115
 8.26   0.0299    577.3349   1001.3214 -45.62     3039.986     0.573     0.336      3.138     83.72706  19.3428        116
 5.50   0.0269    585.4738     75.7457 -67.57     3376.439     0.965     0.954      4.150     83.74603  19.2289        117
 5.11   0.0204   1000.6995   1273.7892 -23.88     4448.609     1.129     1.019      4.145     83.74603  18.9294        118
 6.74   0.0152   1598.4836    654.9836 -35.24     4900.757     1.182     0.755      4.932      68.5485  18.8243        119
 6.67   0.0277   1595.9614    374.0274  41.76     3044.363     0.803     0.781      4.680      77.7661  19.3413        120
 4.97   0.0103   1030.9441    302.6436  65.88     8806.694     1.852     1.356      6.568     83.77448  18.1880        121
 3.50   0.0006    985.6684    558.4529 -53.00     150087.5     1.772     1.703      4.457     83.74603  15.1091        122
 5.84   0.0135    987.3660    453.8745 -69.95     6726.551     1.342     1.151      5.795       83.765  18.4805        123
 5.99   0.0172    981.6799    797.8624 -17.31     5294.769     1.182     0.957      5.134     83.72706  18.7404        124
 6.62   0.0187    979.0314    452.5188  89.17      4859.07     0.783     0.500      4.272     83.77448  18.8336        125
 6.68   0.0384    965.8215    416.1882 -42.86     2366.519     0.760     0.564      3.663     83.77448  19.6147        126
 7.04   0.0226    952.0219    654.1979   4.29     4033.734     0.935     0.751      5.044     83.78396  19.0357        127
 6.46   0.0433    948.6243    445.2148 -17.64      2103.51     0.743     0.450      3.151     83.77448  19.7426        128
 4.52   0.0094    939.9567   1066.9950 -68.97     9686.926     1.243     1.183      4.130     83.81239  18.0845        129
 7.30   0.0252    939.0000    516.0090   0.00     3606.482     0.850     0.289      2.937     83.74603  19.1573        130
 3.50   0.0012    930.5116   1178.4536 -45.18     77211.42     1.683     1.645      4.382     83.73655  15.8308        131
 4.77   0.0157    929.1415   1322.3268  77.80     5808.419     1.175     1.037      4.253     83.74603  18.6399        132
 5.03   0.0221    913.6597    838.4653 -71.80     4108.033     1.086     0.994      4.054     83.75552  19.0159        133
 6.17   0.0351    913.1230   1000.8743  43.79     2587.968     0.820     0.671      3.951     83.73655  19.5176        134
 8.68   0.0394    905.6592   1315.3329  45.32     2308.134     0.580     0.332      3.482     83.75552  19.6418        135
 3.50   0.0028    901.2381    302.7928 -69.84     32763.66     1.533     1.467      4.281     83.79344  16.7615        136
 3.50   0.0000    882.8272    183.6641 -39.56      2473956     3.801     3.437      6.735     83.79344  12.0665        137
 5.65   0.0123    897.0488    538.2656   9.28     7379.633     1.371     1.213      5.636       83.765  18.3799        138
 7.63   0.0447    894.9872   1425.7455 -89.31     2037.828     0.680     0.436      3.722     83.82187  19.7771        139
 4.91   0.0043    880.3037    224.4290  89.77     20990.34     6.075     1.576     14.101     83.73655  17.2450        140
 7.12   0.0209    889.8623    325.2966  21.97     4358.808     0.959     0.675      5.100     83.72706  18.9516        141
 3.50   0.0002    881.0632   1592.5182 -59.42     578077.8     1.984     1.890      4.508     83.72706  13.6450        142
 4.97   0.0205    886.4539   1500.2401 -30.10      4435.91     1.097     0.931      3.869     83.77448  18.9325        143
 7.16   0.0227    886.5475   1304.7545  58.27     4010.697     1.054     0.816      5.649     83.78396  19.0420        144
 6.70   0.0150    878.9013   1177.0784  56.73     6063.542     1.248     1.121      6.410     83.71758  18.5932        145
 5.94   0.0349    878.3253    960.7850 -76.58     2611.444     0.962     0.858      4.043      83.8503  19.5078        146
 4.98   0.0067    870.2983   1103.6595 -66.59     13647.12     1.675     1.512      5.699     83.71758  17.7124        147
 3.50   0.0001    860.0699   1224.5084 -53.73      1481777     2.187     2.076      4.688     83.73655  12.6230        148
 6.06   0.0179    868.7755    939.6843  20.35     5075.082     1.410     1.024      5.930     83.78396  18.7864        149
 6.07   0.0204    860.3856   1157.3900 -40.75     4461.903     1.043     0.950      4.428     83.74603  18.9262        150
 6.11   0.0236    859.2457   1339.6561 -65.63     3849.689     1.116     0.876      4.668     83.77448  19.0864        151
 7.31   0.0170    845.3869   1206.3982 -18.93     5344.615     0.968     0.807      5.695       83.765  18.7302        152
 6.09   0.0330    845.9082   1063.6815 -35.52     2755.842     0.984     0.825      4.193     83.75552  19.4494        153
