#   1 NUMBER                 Running object number                                     
#   2 EXT_NUMBER             FITS extension number                                     
#   3 FLUX_BEST              Best of FLUX_AUTO and FLUX_ISOCOR                          [count]
#   4 FLUXERR_BEST           RMS error for BEST flux                                    [count]
#   5 MAG_BEST               Best of MAG_AUTO and MAG_ISOCOR                            [mag]
#   6 MAGERR_BEST            RMS error for MAG_BEST                                     [mag]
#   7 X_IMAGE                Object position along x                                    [pixel]
#   8 Y_IMAGE                Object position along y                                    [pixel]
#   9 A_IMAGE                Profile RMS along major axis                               [pixel]
#  10 B_IMAGE                Profile RMS along minor axis                               [pixel]
#  11 THETA_IMAGE            Position angle (CCW/x)                                     [deg]
         1   1     43031.22      193.874  16.4703   0.0049     63.4906     54.0606     5.079     4.642  10.24
         2   1     5793.242     100.5898  18.6475   0.0189    984.8857     17.6089     4.179     1.842 -88.11
         3   1      3889.92     59.13771  19.0799   0.0165     91.0583     18.7909     1.665     1.590 -77.68
         4   1     10050.32     62.48773  18.0493   0.0068   1445.5699     15.4372     1.765     1.663 -58.56
         5   1     272.1539     51.46277  21.9677   0.2054   1469.4524      7.7679     0.745     0.449 -68.75
         6   1     377.4186     54.35074  21.6127   0.1564    145.3089      4.5160     1.257     0.896  44.41
         7   1     182.9064     38.65202  22.3992   0.2295   1183.4982     10.4944     0.503     0.497  44.88
         8   1     47777.05     73.70651  16.3567   0.0017   1078.2454     60.5870     2.101     1.994  78.89
         9   1      121.897     35.92011  22.8398   0.3200    839.6812     14.3362     0.572     0.336  45.80
        10   1     815.5618     49.44383  20.7761   0.0658    367.0246     25.5086     1.386     1.224 -44.58
        11   1     313.1539     34.96207  21.8154   0.1212    384.0876     17.9751     1.065     0.750  -6.21
        12   1     628639.9     196.4835  13.5588   0.0003   1107.3342    182.7325     5.842     5.048 -33.02
        13   1     412.5127     69.19193  21.5162   0.1822    383.1618     24.5880     1.000     0.715  87.82
        14   1     411.0596     64.88685  21.5200   0.1714   1110.5074     35.5278     1.018     0.640  83.69
        15   1     489.6743     67.20037  21.3300   0.1490    326.4466     34.3293     1.064     0.824 -55.26
        16   1     329.6283     52.11837  21.7597   0.1717   1521.2977     38.8936     1.154     0.680  57.82
        17   1     305.9594     49.78601  21.8406   0.1767   1170.4801     39.8461     0.941     0.732  -0.97
        18   1     376.8821     68.45188  21.6143   0.1972    440.1219     45.8528     1.403     1.002 -39.18
        19   1     266.6208     31.91586  21.9900   0.1300    915.3459     43.2799     1.174     0.700 -44.82
        20   1     45395.29     71.36602  16.4123   0.0017    537.4124     80.9598     2.020     1.918 -67.89
        21   1     123.0419     32.96255  22.8296   0.2909   1225.9862     40.5038     0.782     0.319 -32.64
        22   1      192.621     45.51041  22.3430   0.2566    265.9854     51.1657     0.939     0.465  36.65
        23   1     168.0422     40.37072  22.4912   0.2609   1435.2108     51.0299     0.788     0.497 -33.32
        24   1     98.57642     30.27804  23.0703   0.3336   1233.6754     49.3377     0.575     0.334  45.58
        25   1     1443.583     46.61609  20.1562   0.0351    127.6706     75.9613     1.365     1.260  65.46
        26   1     408.2594     58.84993  21.5274   0.1565    421.4473     82.8388     1.212     0.808 -51.35
        27   1     950.8154     90.83411  20.6095   0.1037    376.7948     91.5345     1.886     1.573 -74.03
        28   1     67575.17     73.24439  15.9803   0.0012    788.9210    122.5929     2.107     1.961 -57.93
        29   1     2300.057     54.35074  19.6504   0.0257     55.9943     97.3432     1.501     1.385  -9.78
        30   1     333.5238     60.55608  21.7470   0.1972    495.8493     92.9185     1.341     0.684  75.14
        31   1      651.375     81.16087  21.0202   0.1353    452.5781     98.7693     1.703     0.981 -24.86
        32   1     154.2637     26.70272  22.5841   0.1880   1075.8324     96.5883     0.766     0.435  21.36
        33   1     149.1322     37.31108  22.6209   0.2717    270.3333    114.3489     0.584     0.329 -45.61
        34   1     162.4226     47.33886  22.5282   0.3165     66.8318    117.8673     0.748     0.562  46.85
        35   1     103.2026      27.3311  23.0206   0.2876    990.6282    118.7044     0.576     0.332 -41.71
        36   1     141.1593     42.01918  22.6805   0.3233    154.4909    118.5058     0.502     0.498  45.33
        37   1     49095.18     255.5262  16.3272   0.0057    403.1562    235.9001     6.429     5.300 -56.45
        38   1     292492.9       81.786  14.3895   0.0003    317.8754    194.4204     2.391     2.159 -62.51
        39   1     38067.35      70.1665  16.6034   0.0020   1468.1359    163.1395     1.999     1.918 -60.49
        40   1     187.1254     32.96255  22.3744   0.1913    418.0420    132.4922     0.804     0.500   0.54
        41   1     8498.897     62.48773  18.2314   0.0080    877.1224    171.1363     1.766     1.710 -68.32
        42   1     196.1323     40.37072  22.3234   0.2235    353.1507    147.2958     0.879     0.605 -30.05
        43   1     162.4594     43.60536  22.5279   0.2915   1279.9960    152.5081     0.803     0.500  -1.46
        44   1     1258.237      70.1665  20.3054   0.0606    325.0115    172.3745     1.467     1.346 -64.12
        45   1     693.4874     45.51041  20.9522   0.0713   1445.5350    165.8674     1.320     1.134  -0.27
        46   1     527.6473     45.88193  21.2489   0.0944    104.3067    167.5935     1.173     1.010 -28.86
        47   1     222.1099     46.25047  22.1884   0.2261   1368.2188    170.4302     1.080     0.717 -47.27
        48   1     110.8446     29.71204  22.9430   0.2911    651.5150    169.4399     0.503     0.493 -35.83
        49   1     295.2533     45.88193  21.8793   0.1688    574.8821    181.2359     1.275     0.773  23.27
        50   1     910.8036     55.58614  20.6562   0.0663   1350.3933    193.3881     1.357     1.132 -35.33
        51   1     414.7947     68.69945  21.5102   0.1799   1354.0366    186.9876     0.796     0.783 -74.11
        52   1     4322.574     105.6924  18.9654   0.0266    827.4822    211.5532     3.936     1.949  -7.29
        53   1     1755.155     51.46277  19.9440   0.0318    548.9205    207.5034     1.549     1.369 -81.30
        54   1     211.6431     40.37072  22.2408   0.2072    267.5382    196.0324     0.765     0.324  56.83
        55   1     2049.233     58.04004  19.7758   0.0308    414.8996    229.8139     1.967     1.652 -19.48
        56   1     499.4551     49.09927  21.3085   0.1068    684.4574    211.4506     1.680     1.042 -82.33
        57   1     944.3723     59.99275  20.6169   0.0690    349.7025    209.4233     1.598     1.217  43.13
        58   1     267.6458     33.47363  21.9859   0.1358    250.6058    204.3587     0.981     0.848 -42.34
        59   1       1643.4     48.40279  20.0154   0.0320   1305.9009    212.9739     1.403     1.346  53.84
        60   1     4246.785     144.3876  18.9846   0.0369    562.2184    231.0750     3.381     2.852  -9.41
        61   1     99.23352     20.18536  23.0631   0.2209   1498.4841    204.4280     0.505     0.489 -36.27
        62   1     173.2189     39.52071  22.4583   0.2478    937.2287    205.7527     0.855     0.346 -19.28
        63   1     2112.648     54.66221  19.7427   0.0281   1225.8657    224.5217     1.548     1.416 -53.97
        64   1     102743.3      75.5267  15.5254   0.0008    997.2145    260.5782     2.174     2.033 -60.88
        65   1     86609.15     73.70651  15.7109   0.0009     67.3777    266.7132     2.116     1.998 -78.85
        66   1     800.7629     80.95142  20.7960   0.1098    345.6050    223.1785     1.579     1.463 -22.38
        67   1     537.4136     41.20319  21.2290   0.0833    774.7524    223.2261     1.202     1.068 -19.32
        68   1     199.5187     40.78908  22.3048   0.2220    740.7268    219.2476     0.845     0.353 -18.84
        69   1     1409.202     80.31981  20.1823   0.0619    112.8208    244.2684     2.123     1.544  77.16
        70   1     3733.852     98.71583  19.1244   0.0287    612.7909    256.2215     2.503     1.802 -37.89
        71   1     521.6777     74.16574  21.2613   0.1544    838.4949    239.9036     1.369     1.007 -37.93
        72   1     148.7583     33.97702  22.6236   0.2480   1478.8186    240.0472     0.940     0.464 -53.93
        73   1     358609.2     83.22636  14.1682   0.0003    439.2092    313.2080     2.401     2.209 -58.52
        74   1     535.1672     71.60352  21.2336   0.1453   1372.6152    252.6677     1.226     0.877 -44.30
        75   1      520.522     68.45188  21.2637   0.1428    107.4959    251.4614     1.084     0.836 -45.23
        76   1     175.6583     36.85326  22.4431   0.2278   1352.5072    254.3471     0.868     0.476   0.00
        77   1     20123.32     66.18213  17.2955   0.0036   1486.2755    288.3375     1.869     1.782 -55.67
        78   1     4219.441     55.58614  18.9916   0.0143   1522.1934    282.7324     1.561     1.489 -43.42
        79   1     511.7219     74.62215  21.2822   0.1584   1273.5472    271.2609     1.161     0.926 -11.08
        80   1     1663.002     63.02876  20.0026   0.0412    514.7311    290.6129     1.859     1.552 -61.03
        81   1     59340.31     72.31131  16.1214   0.0013    905.2509    319.4862     2.069     1.942 -61.70
        82   1     14794.44     64.62468  17.6295   0.0047    201.5941    303.9936     1.829     1.708 -73.78
        83   1     1054.587     97.15569  20.4971   0.1000   1413.5083    297.8686     2.150     1.549 -39.26
        84   1     1787.919      50.4634  19.9239   0.0307   1327.3584    294.7549     1.400     1.322 -23.02
        85   1     304744.2     80.31981  14.3449   0.0003   1345.7200    352.2489     2.313     2.158 -52.96
        86   1       316302       81.786  14.3045   0.0003    890.5778    352.2323     2.350     2.174 -52.57
        87   1     617.0115     67.95404  21.0790   0.1196   1475.4912    294.2966     1.171     0.977 -66.12
        88   1     705.2452     45.51041  20.9339   0.0701    563.5292    302.8696     1.321     1.261  64.37
        89   1     9588.647     60.27507  18.1004   0.0068    697.1324    322.8518     1.711     1.657 -67.39
        90   1     594.9465     88.17868  21.1186   0.1610     85.4069    309.7060     1.983     0.885 -81.45
        91   1     742.0648     85.83723  20.8787   0.1256    641.0074    322.1810     2.195     1.269 -76.22
        92   1      1724.36     74.84931  19.9632   0.0471    595.2689    328.1170     1.627     1.559 -50.18
        93   1     137.3737     31.37942  22.7100   0.2481    226.3809    317.8036     0.752     0.447 -71.76
        94   1     6542.492     66.43815  18.5154   0.0110    866.9109    347.0935     1.821     1.669 -38.15
        95   1     430.6477      53.0866  21.4695   0.1339     93.4377    332.8581     1.068     0.836  -7.83
        96   1     216.0994     34.47306  22.2181   0.1732   1545.6162    330.3324     0.994     0.631  -6.15
        97   1     346.4821     42.42128  21.7056   0.1330   1440.3218    335.7877     0.986     0.855 -48.97
        98   1     5431.816     71.84022  18.7174   0.0144    431.6613    356.5633     1.957     1.739 -76.63
        99   1     845.7324     44.75812  20.7367   0.0575     54.4747    350.8575     1.290     1.224 -39.25
       100   1     175.9059     39.52071  22.4416   0.2440     42.2829    348.6108     0.983     0.545 -59.05
       101   1      9911.62     59.99275  18.0644   0.0066    760.8817    368.9762     1.739     1.636 -55.02
       102   1     296.0448     57.97803  21.8764   0.2127    920.2661    351.1112     0.939     0.676 -17.72
       103   1     1681.042      50.4634  19.9908   0.0326   1500.1698    362.0320     1.428     1.398  10.15
       104   1     3736.442     57.09282  19.1236   0.0166    442.6443    368.2886     1.606     1.455 -44.79
       105   1     122.0979     28.54641  22.8380   0.2539    350.3493    353.6877     0.575     0.334  43.36
       106   1     49872.85      70.1665  16.3101   0.0015    231.2756    396.0084     2.003     1.932 -59.51
       107   1     382.9711     63.29754  21.5969   0.1795    533.2850    360.5867     1.031     0.915  21.62
       108   1     360.6892     35.44432  21.6619   0.1067   1033.7421    361.4968     1.094     0.910 -34.22
       109   1     185.4641     40.37072  22.3841   0.2364   1415.6968    363.8832     1.038     0.416 -78.20
       110   1     537.8372     39.08878  21.2282   0.0789    992.1270    373.7502     1.191     1.021 -58.62
       111   1     437.0312     61.11421  21.4535   0.1519   1083.8434    373.9765     1.443     1.000 -45.30
       112   1     180.8215     39.52071  22.4117   0.2374    210.5096    369.9420     0.786     0.499  87.58
       113   1     382.2458     63.56519  21.5989   0.1806     71.4292    371.1455     1.204     0.716 -16.36
       114   1     586.8914     83.43011  21.1334   0.1544    753.9877    376.9810     1.723     0.867  38.43
       115   1     6674.975     58.84993  18.4937   0.0096   1461.0035    397.8752     1.678     1.607 -57.54
       116   1     252.0526     42.01918  22.0511   0.1810     86.3840    376.6144     1.364     0.457  23.01
       117   1     8002.958     61.94198  18.2967   0.0084    354.4046    398.9585     1.759     1.641 -56.82
       118   1     223.1406     48.75227  22.1833   0.2373    125.6369    380.9103     0.902     0.682 -22.70
       119   1     1709.316     54.66221  19.9727   0.0347   1088.6681    394.5150     1.553     1.372 -16.65
       120   1     45832.43     69.92413  16.4018   0.0017    433.1460    420.3994     1.997     1.878 -57.35
       121   1     21834.44     66.94727  17.2069   0.0033    837.1794    416.4439     1.895     1.794 -67.30
       122   1     180.0017     38.21027  22.4166   0.2305   1195.2917    390.0044     0.739     0.674  85.80
       123   1     162.1672     39.08878  22.5299   0.2618    260.4030    390.2305     0.744     0.452  71.18
       124   1     259.3776     46.25047  22.0200   0.1936    977.5050    397.2771     1.103     0.780 -21.24
       125   1      461.718     69.19193  21.3938   0.1627    626.5070    397.9344     1.528     0.795  15.77
       126   1     528.4319     41.20319  21.2473   0.0847    305.5588    440.8153     1.189     1.082 -50.74
       127   1     195.2987     43.60536  22.3280   0.2425    281.6329    407.6977     1.007     0.467 -82.40
       128   1     348.2639     56.79468  21.7000   0.1771      2.5615    415.6719     1.141     0.754  28.95
       129   1     327.1414      50.4634  21.7679   0.1675    526.8889    404.5128     0.784     0.499  -1.99
       130   1     3869.398     57.09282  19.0857   0.0160    926.1458    425.0124     1.635     1.521 -46.76
       131   1     142617.7     75.75114  15.1693   0.0006    807.3679    461.8470     2.148     2.048 -54.81
       132   1     233.6384     54.03748  22.1334   0.2512   1562.2982    413.7131     1.155     0.451 -60.78
       133   1     16073.22     64.09712  17.5395   0.0043    251.9271    438.7642     1.813     1.728 -54.88
       134   1     877.7545     78.39442  20.6963   0.0970    158.7295    421.8596     1.660     1.444  50.88
       135   1     84.70972     25.39935  23.2349   0.3256    199.3263    412.6987     0.560     0.342  43.64
       136   1     187.2247     40.37072  22.3739   0.2342    558.6304    415.3152     0.584     0.328  42.89
       137   1     272.7778     54.97191  21.9653   0.2189   1203.5216    419.5396     1.222     0.608  13.28
       138   1     1226.428     50.12585  20.3332   0.0444   1421.9036    433.6358     1.428     1.337 -17.73
       139   1     525.3582     70.64876  21.2536   0.1460   1179.3110    427.7109     1.296     0.986  20.69
       140   1     136.8037     33.97702  22.7145   0.2697   1579.7715    420.6244     0.757     0.446  17.88
       141   1     288.1119     54.97191  21.9059   0.2072   1063.8502    424.8950     0.815     0.670 -46.61
       142   1     421.1068     65.14796  21.4938   0.1680    717.7710    431.8513     0.930     0.895 -64.55
       143   1     523.5742     54.35074  21.2573   0.1127    151.0015    434.9498     1.154     0.980  25.47
       144   1     7422.975     173.4454  18.3783   0.0254    850.1890    468.5386     7.442     1.903  22.22
       145   1     5115.388     59.42409  18.7826   0.0126     21.1382    451.1122     1.703     1.572 -39.37
       146   1     885.1393     78.82635  20.6873   0.0967    122.1262    446.1109     1.653     1.204 -32.70
       147   1     136.2568     31.37942  22.7189   0.2501    353.3013    434.6680     0.562     0.341  46.61
       148   1     829.6637     65.92511  20.7575   0.0863    884.3464    448.0235     2.252     1.419  -1.26
       149   1     5648.761     58.27011  18.6749   0.0112     34.3958    458.6750     1.679     1.537 -60.50
       150   1     120.1196     32.44342  22.8557   0.2933    654.5854    444.1706     0.757     0.448 -70.39
       151   1     1798.967     54.97191  19.9172   0.0332    468.4730    464.5988     1.596     1.441 -73.92
       152   1     188.5828     32.96255  22.3660   0.1898   1533.1399    453.8176     0.790     0.678  37.42
       153   1     503.6198     58.56074  21.2995   0.1263   1096.1396    461.9113     1.156     1.063  54.35
       154   1     1461.691     51.13182  20.1426   0.0380    254.1115    472.0582     1.524     1.321 -72.83
       155   1     300.4543     47.69614  21.8603   0.1724    724.6503    462.3787     1.116     0.728 -28.34
       156   1     145.0743     31.91586  22.6508   0.2389   1223.6603    457.7005     0.565     0.339 -42.96
       157   1     2149.442     51.13182  19.7240   0.0258    734.7728    472.9619     1.496     1.347 -38.58
       158   1      2825.51     54.03748  19.4270   0.0208    922.8173    478.7596     1.544     1.447 -35.41
       159   1     948.7179      53.0866  20.6119   0.0608   1276.8331    478.7934     1.380     1.256 -53.38
       160   1     170.7378     33.97702  22.4740   0.2161   1168.0371    476.5136     0.813     0.676 -89.76
       161   1     20739.54     168.3795  17.2628   0.0088    518.6295    533.7934     4.107     3.566  28.40
       162   1     1215.531     46.61609  20.3429   0.0416   1070.4277    484.9557     1.365     1.226 -66.11
       163   1     184.5258     42.01918  22.3896   0.2473    781.5225    473.4778     0.505     0.494  45.02
       164   1     2397.827     112.3873  19.6052   0.0509     82.5904    496.9649     2.338     2.068  56.28
       165   1     635.8462     73.24439  21.0464   0.1251    839.5610    489.7222     1.974     0.945  85.43
       166   1     2190.413     98.71583  19.7035   0.0489   1186.6776    496.5237     2.961     1.842 -15.91
       167   1     232.8306     38.21027  22.1372   0.1782   1309.1306    481.6935     0.894     0.694  71.28
       168   1     218.3352     31.91586  22.2070   0.1587    682.6145    479.8593     1.030     0.720  17.68
       169   1     158.8745     40.37072  22.5521   0.2760   1520.4889    481.6788     0.921     0.467  -0.10
       170   1     12009.21     68.47414  17.8560   0.0062   1302.2382    513.2880     1.839     1.727 -66.23
       171   1     1098.585     65.40804  20.4527   0.0647    763.0609    505.2572     1.787     1.614  35.25
       172   1     3043.683     96.27802  19.3463   0.0344   1460.9927    516.2645     4.349     1.624  24.44
