#   1 KRON_RADIUS            Kron apertures in units of A or B                         
#   2 Y_IMAGE                Object position along y                                    [pixel]
#   3 MAG_BEST               Best of MAG_AUTO and MAG_ISOCOR                            [mag]
#   4 FLUX_BEST              Best of FLUX_AUTO and FLUX_ISOCOR                          [count]
#   5 X_IMAGE                Object position along x                                    [pixel]
#   6 THETA_IMAGE            Position angle (CCW/x)                                     [deg]
#   7 A_IMAGE                Profile RMS along major axis                               [pixel]
#   8 B_IMAGE                Profile RMS along minor axis                               [pixel]
#   9 MAGERR_BEST            RMS error for MAG_BEST                                     [mag]
#  10 NUMBER                 Running object number                                     
#  11 FLUXERR_BEST           RMS error for BEST flux                                    [count]
 3.50     59.9924  16.3563     47588.02   1078.7397 -76.37     3.031     3.004   0.0022          1     97.26984
 3.80     53.4462  16.5009     41651.46     63.9191   1.33     5.337     4.876   0.0046          2     178.1201
 4.08     16.9284  18.6294     5864.851    985.4626 -87.34     4.427     2.434   0.0227          3     122.5328
 3.50     18.2198  19.2037     3455.521     91.5117 -89.07     2.184     2.115   0.0214          4     68.09087
 3.54     14.9005  18.0302     10183.62   1446.0903 -42.62     2.591     2.467   0.0088          5     82.25485
 7.64      7.3019  22.5540     157.9132   1466.3320 -43.43     0.563     0.340   0.2112          6     30.71558
 6.30      5.0665  22.2333     212.1714    144.8630 -83.55     0.803     0.681   0.2191          7     42.81334
 8.49      4.0000  22.2161     215.5513   1580.0042   0.00     0.836     0.289   0.2009          8     39.87959
 6.13     25.1073  20.3124     1244.604    367.6415  26.07     1.770     1.749   0.0868          9     99.46211
 8.11     17.1742  21.2314     533.8594    385.0853 -33.22     1.396     0.608   0.1393         10      68.4856
 6.87     34.8679  21.4337     443.1161   1109.8555  64.00     1.403     0.661   0.1484         11     60.54721
 3.50     80.3080  16.3857     46314.34    537.8432 -75.16     2.975     2.935   0.0022         12     95.31025
 7.99     37.7023  21.7007     346.5193   1521.1277  69.14     0.976     0.690   0.1862         13     59.42379
 9.43     38.5241  22.3548     189.7114   1170.4841  44.19     0.505     0.494   0.2487         14     43.43839
 6.75     42.1870  22.0625     248.3046    915.0546  36.06     0.940     0.466   0.1802         15     41.20927
 5.41     44.2103  22.9878     105.8937    564.4238  70.29     0.750     0.451   0.3012         16     29.36971
 4.55     75.2320  19.9882     1677.698    128.0788  -2.01     2.038     1.769   0.0518         17     80.09643
 3.50    121.9991  15.9588     68622.38    789.4222 -43.33     3.091     2.991   0.0015         18     97.82252
 8.23     80.6874  21.1790     560.2977    422.8605 -69.48     1.831     0.584   0.1509         19      77.8782
 6.64     90.7543  20.2667      1298.14    377.0980  89.81     2.137     1.683   0.0968         20     115.7452
 4.32     96.7815  19.6293     2335.009     56.4105 -47.91     2.142     1.995   0.0383         21     82.25485
 6.56     97.9843  21.0730     617.7461    453.0412 -10.20     2.000     0.927   0.1440         22     81.92649
 3.92    170.5607  18.1939      8758.38    877.5997 -21.37     2.596     2.542   0.0115         23     92.72994
 3.50    162.5962  16.5854     38533.21   1468.6017 -50.03     2.946     2.848   0.0026         24     93.59795
 4.54    131.7585  23.0370     101.2041   1511.9980  -0.09     0.691     0.428   0.2492         25     23.21879
 6.88    165.6576  20.9392     698.7219   1446.0773 -42.49     1.415     1.198   0.1278         26     82.25485
 4.86    166.8479  21.0797     613.9191    104.9452 -84.09     1.507     1.343   0.1136         27     64.22001
 5.88    159.3233  23.3146     78.37036    537.6866  45.51     0.564     0.340   0.3297         28     23.79218
 6.12    192.8279  20.1309      1471.11   1350.5502 -33.77     2.922     1.450   0.0858         29       116.21
 4.93    211.0075  18.7801     5104.565    827.9856  -4.47     4.185     2.622   0.0319         30     149.9366
 4.53    206.7366  19.8295     1941.841    549.4040 -48.40     2.105     1.879   0.0463         31     82.74496
 4.65    212.5211  19.9693     1707.135   1306.4330 -68.02     2.091     1.821   0.0533         32     83.71655
 5.26    230.1405  18.7899     5058.616    562.5012 -37.69     3.810     3.392   0.0373         33     173.5207
 3.50    260.0289  15.4979     104919.7    997.7187 -31.72     3.179     3.090   0.0010         34     100.8081
 6.95    210.9013  21.3236     490.3995    684.3038 -59.47     1.540     1.020   0.1774         35     80.09643
 4.23    224.0483  19.8744     1863.075   1226.2903 -22.70     2.031     1.927   0.0450         36     77.18285
 5.35    222.7530  20.8954     727.4865    775.3895 -54.77     1.809     1.449   0.1183         37     79.25061
 3.50    266.0527  15.6978     87275.22     67.7354 -43.79     3.128     3.024   0.0012         38     98.64572
 5.83    243.7050  19.8022      1991.19    113.0363 -77.12     2.694     1.956   0.0672         39      123.191
 4.54    255.5920  19.0282      4061.94    613.4211 -37.77     2.987     2.534   0.0308         40     115.0444
 7.03    239.4051  21.0881     609.2211    838.6548 -80.25     1.643     0.860   0.1363         41     76.48117
 7.81    229.6943  23.1827     88.49365    538.6589 -43.29     0.568     0.338   0.3979         42     32.42328
 3.50    287.9388  17.2579     20740.84   1486.5565 -29.06     3.092     2.733   0.0049         43     93.16496
 8.22    252.1398  22.3406     192.1971   1374.1748   9.82     0.995     0.700   0.1852         44     32.77771
 3.50    282.1220  18.9548     4345.958   1522.4805 -44.20     2.397     2.330   0.0190         45     76.12791
 3.50    303.2986  17.6252     14787.76    201.9460  81.55     2.725     2.685   0.0064         46     87.03177
 3.50    322.3131  18.0810      9718.89    697.5564  78.99     2.545     2.526   0.0092         47     81.92649
 5.03    302.6460  21.0165     650.7527    563.9017  -9.44     1.653     1.383   0.1172         48     70.23445
 8.03    308.3838  20.9224     709.6398     86.2233  87.87     1.279     0.996   0.1276         49     83.39394
 5.57    327.8480  19.6778     2232.929    595.7647 -36.72     2.312     2.177   0.0559         50     114.9272
 7.03    323.0115  20.9374     699.9271    640.0058  80.26     1.572     1.066   0.1294         51     83.39394
 7.64    321.4944  20.8611     750.8544    643.4767  53.38     1.782     0.813   0.1218         52     84.19815
 7.19    331.8544  21.3673     471.0651     93.1126  72.97     1.157     0.864   0.1542         53      66.8927
 3.68    368.6599  17.9608     10856.66    760.9850 -48.41     3.231     2.593   0.0098         54     98.23499
 7.54    329.5132  22.2819     202.8895   1546.5171  -0.14     1.089     0.500   0.2765         55     51.65855
 5.33    349.9267  20.5668     984.6444     54.7275 -33.05     1.707     1.422   0.0842         56     76.30474
 3.50    395.3920  16.2837     50878.89    231.5977 -62.82     3.044     2.975   0.0021         57     96.43489
 4.56    361.4849  19.9395     1754.763   1500.6577 -19.23     2.058     1.899   0.0513         58     82.90768
 5.61    361.1364  21.5962      381.532   1034.1522  63.29     1.356     0.944   0.1646         59     57.81433
 5.56    381.1993  20.4747     1071.852      1.9191  89.92     2.451     0.904   0.0625         60     61.65016
 3.84    398.3579  18.2447     8358.074    354.7344  68.09     2.588     2.567   0.0119         61     91.55981
 6.97    372.0318  21.2848     508.2693     70.7653 -55.38     1.399     0.754   0.1408         62     65.87757
 3.71    397.4172  18.4682     6803.153   1461.3718 -31.96     2.578     2.377   0.0135         63       84.677
 6.46    370.0135  22.5725     155.2396    209.0098  -0.68     0.615     0.606   0.2436         64     34.82819
 8.07    372.8885  21.4442     438.8473   1084.1633 -12.06     1.030     0.665   0.1520         65     61.43116
 3.69    393.9711  20.0342     1608.069   1088.8983 -52.38     1.986     1.909   0.0452         66      66.8927
 5.12    412.5886  19.7600     2070.109      2.3713  89.00     3.544     1.277   0.0432         67     82.25485
 7.20    382.3391  21.9840      266.925     67.3483 -45.00     1.110     0.654   0.2295         68     56.39825
 7.63    383.7711  22.2657     205.9245      9.8582  11.59     1.358     0.557   0.1918         69     36.36084
 7.89    397.2686  21.0362     639.0424    626.1052 -77.88     1.385     0.808   0.1300         70     76.48117
 3.50    461.3334  15.1521       144269    807.6801 -42.64     3.187     3.087   0.0008         71     101.2084
 3.50    438.1793  17.5268     16191.17    252.3251  -7.72     2.790     2.705   0.0060         72     88.87067
 6.42    420.9557  20.2695     1294.739    159.3079  43.28     2.158     1.705   0.0949         73     113.1544
 5.26    433.0997  20.2998      1259.16   1422.1903  69.41     1.817     1.717   0.0733         74     84.99474
 4.99    426.9867  20.0564     1575.561    433.6164   1.79     3.411     1.099   0.0417         75       60.502
 4.50    450.5894  18.6656      5672.11     21.4207  29.10     2.486     2.460   0.0196         76     102.2682
 5.83    426.7534  21.6560     361.0653   1180.0170  34.23     1.461     0.792   0.1739         77     57.81433
 4.89    468.0778  18.2882     8030.442    851.1030  23.78     7.174     2.586   0.0263         78      194.193
 6.88    434.3987  20.9558     688.1416    150.7365   5.03     1.835     1.044   0.1386         79     87.80266
 8.49    431.0078  21.6966     347.8257    720.1688  54.18     0.930     0.469   0.1588         80     50.86983
 6.20    444.9543  20.4544     1092.039    122.5157  59.23     1.881     1.549   0.0970         81     97.54657
 4.06    457.9190  18.5526     6294.553     34.5368 -17.68     2.654     2.427   0.0164         82     94.88507
 5.35    440.3495  21.2845     508.4127    305.9942   4.56     1.300     1.116   0.1260         83     58.96842
 4.37    463.9705  19.9193     1787.666    468.8617  48.26     2.242     1.895   0.0503         84     82.74496
 6.00    461.4203  21.2394     529.9719   1096.9910  70.01     1.411     1.077   0.1383         85     67.49445
 3.50    478.1529  19.4578     2734.611    923.1714 -42.87     2.291     2.063   0.0277         86     69.65638
 5.14    471.5919  19.9663      1711.85    254.7253   9.05     1.979     1.869   0.0576         87     90.82081
 3.64    472.2752  19.7779     2036.326    735.0544  13.65     2.058     1.946   0.0360         88     67.49445
 3.98    596.9883  18.6455     5778.323    782.9264 -87.77     3.616     3.454   0.0242         89     128.8591
 4.16    478.5011  20.5402     1009.097   1277.1141 -65.74     2.062     1.725   0.0776         90     72.12791
 7.44    462.3968  21.9163     284.1062    722.7953 -12.80     1.120     0.417   0.1786         91     46.72692
 6.02    495.6913  19.3987     2887.388     82.7940 -76.01     2.776     2.530   0.0553         92     146.9403
 4.67    495.7672  19.6476     2295.856   1186.4735 -12.09     3.112     2.310   0.0543         93     114.8098
 3.94    483.9861  20.5142       1033.5   1070.6869 -32.19     1.909     1.620   0.0666         94     63.37497
 4.24    531.0347  17.6799     14061.39    519.8568  20.40     5.170     3.237   0.0099         95     128.2356
 7.00    489.6824  21.0680     620.6107    839.3367  48.22     1.546     1.140   0.1493         96     85.31129
 4.65    502.2025  21.2940     503.9827    863.7805 -39.11     1.826     1.368   0.1450         97     67.29446
 5.50    504.4208  20.3414     1211.777    763.4030 -17.69     2.418     1.450   0.0850         98     94.88507
 4.49    515.7132  19.2736     3240.169   1461.0072  21.96     4.042     2.029   0.0398         99     118.6205
 8.23    499.3254  22.2295     212.9092    366.3373 -44.47     0.576     0.334   0.1716        100     33.64723
 8.51    509.5540  20.9034     722.1783    166.5013  80.85     1.056     0.943   0.1179        101     78.39567
 6.68    509.5143  21.9693     270.5626    454.2384 -89.83     0.978     0.719   0.2063        102     51.39699
 6.17    513.6793  21.0572     626.7728   1179.5035   5.85     1.540     1.120   0.1288        103     74.33641
 6.30    518.5699  21.6157      374.741    642.8600 -29.67     1.255     0.759   0.1655        104     57.11068
 3.50    540.5333  20.1103     1499.333   1000.0637 -45.72     2.173     1.750   0.0456        105      62.9482
 8.72    536.4772  22.2143     215.9231    402.4882 -37.02     0.500     0.499   0.2023        106     40.21613
 3.52    559.1711  19.7187     2150.469   1041.8424 -30.51     2.139     1.954   0.0335        107     66.28549
 3.83    580.9929  18.0828     9702.231    145.0090 -71.13     2.633     2.498   0.0101        108     90.22526
 3.59    582.3879  18.0892     9645.091    319.3510 -38.63     2.654     2.520   0.0096        109     85.15317
 4.74    571.4081  19.9242     1779.627     45.8489  54.95     2.361     1.903   0.0564        110      92.4388
 4.55    550.7809  23.5302     64.25708    143.9820  -0.87     0.655     0.414   0.3510        111     20.76752
 4.62    571.8522  20.1308     1471.282   1447.7355  40.12     2.427     1.906   0.0675        112     91.41248
 8.47    565.4220  20.7273     849.3556    139.1938 -84.40     1.745     0.805   0.1182        113      92.4388
 5.78    577.0038  21.7525     330.3633   1002.5832  -1.68     1.329     1.013   0.2027        114     61.65016
 4.94    584.7218  21.0565     627.1946     75.8023  73.68     1.554     1.136   0.1037        115     59.87568
 6.83    986.9518  19.6959     2195.987    454.2726  73.36     2.267     1.946   0.0655        116     132.3675
 4.97   1598.8541  21.4853     422.5553    654.9175 -26.99     1.750     1.035   0.1148        117     44.67133
 5.87   1595.9941  22.2161     215.5559    652.7838 -22.74     1.121     0.683   0.1526        118     30.29543
 4.43   1599.4045  22.0051     261.7906     20.3169 -17.39     1.692     0.641   0.1477        119     35.59374
 7.59   1594.4321  21.7521     330.4933    374.4944 -88.56     1.109     0.499   0.1663        120     50.60419
 8.91   1594.3894  22.0020     262.5399   1387.1508  19.77     0.757     0.441   0.1968        121     47.58437
 4.10   1584.9974  20.4066     1141.157   1108.8923  -5.70     1.845     1.581   0.0615        122     64.63839
 4.99   1585.4872  22.9012     114.6896   1068.7310  53.74     1.360     0.225   0.2408        123     25.43491
 3.50   1566.8105  19.8503     1904.892     22.0706  39.44     2.151     1.984   0.0379        124     66.48851
 3.54   1565.8353  20.3790     1170.598    784.5983  73.81     2.207     1.782   0.0598        125     64.42953
 3.50   1558.1235  16.1221     59040.13    487.7611 -84.10     2.956     2.930   0.0018        126     95.16874
 3.50   1552.8146  17.1183     23586.88    682.2030 -28.15     4.833     4.349   0.0068        127     147.9458
 7.93    869.6841  22.4932     167.0061    642.6815 -44.87     0.563     0.341   0.2081        128      32.0049
 6.42    858.8502  21.2246     537.2213   1339.7490 -54.85     1.522     1.265   0.1124        129     55.58821
 5.78    845.3093  21.1707     564.5975   1064.6372   4.64     1.337     1.276   0.1332        130     69.26832
 5.35    843.6138  20.5172      1030.68   1106.4128  28.43     1.837     1.523   0.0863        131     81.92649
 4.79    836.8301  20.2548     1312.397    298.9754 -57.04     2.095     1.693   0.0685        132     82.74496
 8.05    837.6497  22.6830     140.2107   1521.6752 -46.05     0.581     0.331   0.2606        133     33.64723
 6.16    836.1196  22.1432     230.5314    819.3091 -20.89     0.916     0.679   0.2118        134       44.963
 3.50    823.2621  18.5312     6419.896    654.5389 -44.83     2.487     2.416   0.0134        135     79.25061
 3.50    803.3782  18.6645     5678.272   1378.7463 -35.98     2.435     2.303   0.0146        136     76.48117
 3.50    798.7995  17.4466      17433.1    695.8089 -82.98     3.169     2.692   0.0059        137     94.02895
 4.08    800.9242  19.4054     2869.703     41.2277 -36.88     2.357     2.166   0.0320        138       84.677
 5.84    797.7188  22.8712     117.8995   1544.2725 -69.71     0.853     0.355   0.2575        139     27.95913
 3.50    774.7054  19.6582     2273.681   1427.5822  88.77     2.779     2.434   0.0401        140     83.87739
 6.60    767.9084  21.9407     277.7814    142.2739  -7.26     1.059     0.677   0.2030        141      51.9188
 8.07    757.6758  22.6659      142.446   1342.3064  45.95     0.561     0.341   0.2535        142     33.24426
 4.68    742.8165  20.2040     1375.284    556.4481  37.00     1.973     1.809   0.0647        143     81.92649
 6.22    737.9290  21.2268     536.1521   1158.6479 -60.24     1.599     1.112   0.1556        144     76.83281
 3.50    726.8715  15.9572     68725.34    848.5637 -46.77     3.084     2.997   0.0016        145     98.23499
 5.03    736.1727  21.0847     611.0824    650.0113 -61.01     1.476     1.207   0.1100        146     61.86839
 4.27    727.8571  20.4647     1081.745   1178.2950  -1.38     1.918     1.742   0.0722        147      71.9408
 7.32    723.0043  21.5791     387.5927   1395.6740 -15.87     1.218     0.677   0.1721        148     61.43116
 3.50    715.9310  20.3462     1206.473    808.4232   3.82     1.831     1.767   0.0525        149     58.27871
 3.71    709.0450  20.3523     1199.735   1164.1002 -19.42     1.930     1.627   0.0544        150     60.10036
 3.89    704.8819  20.2707     1293.307   1339.0087 -17.61     2.022     1.783   0.0544        151     64.78856
 4.09    703.0588  19.5853     2431.549    952.6016 -17.93     2.164     2.110   0.0358        152     80.26452
 6.60    698.4171  20.8876     732.7791    583.4592  16.60     1.674     1.410   0.1383        153     93.30951
 6.11    691.0156  20.7311     846.3542   1214.0000 -64.82     1.742     1.438   0.1146        154     89.32449
 6.27    687.3191  21.2203     539.3599   1214.3245 -19.51     1.893     1.111   0.1129        155     56.08774
 8.75    687.4052  21.9732      269.588    132.1882  19.49     0.759     0.446   0.1917        156     47.58437
 3.91    685.7895  19.7509     2087.501    644.3520 -76.66     2.205     2.099   0.0401        157     77.00803
 3.50    648.6792  15.9697     67939.72   1464.4430 -41.35     3.031     2.933   0.0015        158     95.87422
 4.47    654.8028  21.2528     523.4613    871.6137  16.84     1.473     1.161   0.1114        159     53.70523
 7.38    644.9847  22.0077     261.1788    653.9760  45.88     0.902     0.526   0.1990        160     47.86677
 3.90    630.8015  21.3809     465.2048    806.2888  -7.27     1.543     1.099   0.1098        161     47.01447
 3.65    623.5600  20.5837     969.4475   1581.1151   6.85     1.716     1.666   0.0640        162     57.11068
 9.29    618.5418  21.6910     349.6298   1151.5134 -42.70     0.509     0.489   0.1330        163     42.81334
 5.15    912.7505  22.0668     247.3398   1000.7191 -10.53     1.167     0.712   0.1880        164     42.81334
 7.90   1550.8585  21.7252     338.7804   1221.9042 -43.50     0.840     0.673   0.1746        165      54.4529
 3.50   1541.9684  19.2657     3263.667    134.9627 -88.98     2.309     2.183   0.0241        166     72.50066
 3.50   1570.5266  20.2218     1352.949     92.6435 -55.10     1.908     1.798   0.0477        167     59.42379
 3.50   1563.8154  16.1107     59665.49    304.2059 -48.02     3.028     2.968   0.0018        168     97.26984
 9.33   1536.9894  21.5083      413.702   1428.7147 -86.80     0.740     0.689   0.1595        169      60.7694
