#   1 KRON_RADIUS            Kron apertures in units of A or B                         
#   2 Y_IMAGE                Object position along y                                    [pixel]
#   3 MAG_BEST               Best of MAG_AUTO and MAG_ISOCOR                            [mag]
#   4 FLUX_BEST              Best of FLUX_AUTO and FLUX_ISOCOR                          [count]
#   5 X_IMAGE                Object position along x                                    [pixel]
#   6 THETA_IMAGE            Position angle (CCW/x)                                     [deg]
#   7 A_IMAGE                Profile RMS along major axis                               [pixel]
#   8 B_IMAGE                Profile RMS along minor axis                               [pixel]
#   9 MAGERR_BEST            RMS error for MAG_BEST                                     [mag]
#  10 NUMBER                 Running object number                                     
#  11 FLUXERR_BEST           RMS error for BEST flux                                    [count]
 3.87     54.0606  16.4717     42788.68     63.4906  10.24     5.079     4.642   0.0046          1     182.2014
 3.50     17.6089  18.6675     5662.472    984.8857 -88.11     4.179     1.842   0.0181          2     94.53356
 3.50     18.7909  19.1551     3613.889     91.0583 -77.68     1.665     1.590   0.0167          3     55.57718
 3.50     15.4372  18.0953     9591.371   1445.5699 -58.56     1.765     1.663   0.0066          4     58.72551
 8.71      7.7679  22.9238     112.3267   1469.4524 -68.75     0.745     0.449   0.4676          5     48.36433
 5.20      4.5160  21.6176     374.0833    145.3089  44.41     1.257     0.896   0.1483          6     51.07843
 7.14     10.4944  22.4228     178.1919   1183.4982  44.88     0.503     0.497   0.2214          7     36.32488
 3.50     60.5870  16.4110     45249.22   1078.2454  78.89     2.101     1.994   0.0017          8     69.26883
 7.81     14.3362  22.5823     153.8475    839.6812  45.80     0.572     0.336   0.2383          9     33.75745
 3.71     25.5086  20.8636     749.1346    367.0246 -44.58     1.386     1.224   0.0674         10     46.46695
 3.96     17.9751  21.8426     304.0491    384.0876  -6.21     1.065     0.750   0.1174         11     32.85709
 3.50    182.7325  13.0896     964147.5   1107.3342 -33.02     5.842     5.048   0.0002         12     184.6537
 7.95     24.5880  21.2645     517.8649    383.1618  87.82     1.000     0.715   0.1364         13     65.02606
 7.77     35.5278  21.4406     440.2927   1110.5074  83.69     1.018     0.640   0.1504         14     60.98018
 6.92     34.3293  21.1022     601.3381    326.4466 -55.26     1.064     0.824   0.1141         15     63.15441
 5.72     38.8936  22.4557     172.8734   1521.2977  57.82     1.154     0.680   0.3077         16     48.98046
 5.84     39.8461  22.0254     256.9529   1170.4801  -0.97     0.941     0.732   0.1977         17     46.78852
 5.61     45.8528  21.5064     414.4336    440.1219 -39.18     1.403     1.002   0.1686         18     64.33057
 3.50     43.2799  22.2876     201.8209    915.3459 -44.82     1.174     0.700   0.1614         19     29.99428
 3.50     80.9598  16.4502     43642.78    537.4124 -67.89     2.020     1.918   0.0017         20     67.06926
 6.79     40.5038  23.6893     55.49915   1225.9862 -32.64     0.782     0.319   0.6062         21     30.97796
 6.55     51.1657  22.6536     144.0685    265.9854  36.65     0.939     0.465   0.3224         22     42.77035
 6.43     51.0299  22.6049     150.6793   1435.2108 -33.32     0.788     0.497   0.2734         23      37.9401
 6.80     49.3377  24.1895     35.01074   1233.6754  45.58     0.575     0.334   0.8826         24     28.45508
 3.50     75.9613  20.1787     1407.712    127.6706  65.46     1.365     1.260   0.0338         25     43.80946
 5.75     82.8388  21.6582     360.3452    421.4473 -51.35     1.212     0.808   0.1667         26     55.30673
 5.12     91.5345  20.3893     1159.482    376.7948 -74.03     1.886     1.573   0.0800         27     85.36523
 3.50    122.5929  16.0185      64950.2    788.9210 -57.93     2.107     1.961   0.0012         28     68.83454
 3.64     97.3432  19.6946     2198.628     55.9943  -9.78     1.501     1.385   0.0252         29     51.07843
 6.18     92.9185  21.9555     274.0326    495.8493  75.14     1.341     0.684   0.2255         30     56.91015
 6.08     98.7693  21.0052     657.5176    452.5781 -24.86     1.703     0.981   0.1260         31     76.27439
 4.43     96.5883  22.9014     114.6635   1075.8324  21.36     0.766     0.435   0.2377         32     25.09502
 8.01    114.3489  22.5978     151.6682    270.3333 -45.61     0.584     0.329   0.2511         33     35.06467
 7.06    117.8673  22.1893     220.9429     66.8318  46.85     0.748     0.562   0.2187         34     44.48871
 6.06    118.7044  22.5278     161.7594    990.6282 -41.71     0.576     0.332   0.1724         35     25.68557
 8.28    118.5058  22.2339     212.0444    154.4909  45.33     0.502     0.498   0.2022         36     39.48931
 4.24    235.9001  16.3831      46426.9    403.1562 -56.45     6.429     5.300   0.0056         37     240.1417
 3.50    194.4204  14.4275       281178    317.8754 -62.51     2.391     2.159   0.0003         38     76.86188
 3.50    163.1395  16.6429     36547.32   1468.1359 -60.49     1.999     1.918   0.0020         39     65.94196
 5.04    132.4922  22.5219       162.65    418.0420   0.54     0.804     0.500   0.2068         40     30.97796
 3.50    171.1363  18.2854     8051.184    877.1224 -68.32     1.766     1.710   0.0079         41     58.72551
 5.36    147.2958  22.5266     161.9398    353.1507 -30.05     0.879     0.605   0.2544         42      37.9401
 6.86    152.5081  22.4439     174.7605   1279.9960  -1.46     0.803     0.500   0.2547         43     40.97999
 4.82    172.3745  20.2858     1275.493    325.0115 -64.12     1.467     1.346   0.0561         44     65.94196
 3.59    165.8674  20.9401     698.1693   1445.5350  -0.27     1.320     1.134   0.0665         45     42.77035
 4.17    167.5935  21.0890     608.7015    104.3067 -28.86     1.173     1.010   0.0769         46      43.1195
 5.09    170.4302  21.7042     345.4044   1368.2188 -47.27     1.080     0.717   0.1367         47     43.46585
 5.71    169.4399  22.6646     142.6182    651.5150 -35.83     0.503     0.493   0.2126         48     27.92316
 4.46    181.2359  21.6294     370.0364    574.8821  23.27     1.275     0.773   0.1265         49      43.1195
 4.36    193.3881  20.6782     888.6438   1350.3933 -35.33     1.357     1.132   0.0638         50     52.23945
 8.45    186.9876  21.6269     370.8766   1354.0366 -74.11     0.796     0.783   0.1891         51     64.56323
 3.72    211.5532  18.8990     4574.902    827.4822  -7.29     3.936     1.949   0.0236         52     99.32894
 3.50    207.5034  19.9973     1663.751    548.9205 -81.30     1.549     1.369   0.0316         53     48.36433
 7.58    196.0324  22.3521     190.1724    267.5382  56.83     0.765     0.324   0.2167         54      37.9401
 4.87    229.8139  19.9104      1802.37    414.8996 -19.48     1.967     1.652   0.0358         55     59.42468
 3.50    211.4506  21.3035     499.5942    684.4574 -82.33     1.680     1.042   0.1003         56     46.14313
 4.07    209.4233  20.6701     895.2582    349.7025  43.13     1.598     1.217   0.0684         57     56.38074
 3.50    204.3587  22.2923     200.9464    250.6058 -42.34     0.981     0.848   0.1700         58     31.45827
 3.50    212.9739  20.0500     1584.889   1305.9009  53.84     1.403     1.346   0.0312         59     45.48858
 4.51    231.0750  18.8729     4686.364    562.2184  -9.41     3.381     2.852   0.0314         60     135.6944
 3.50    204.4280  25.3100       12.474   1498.4841 -36.27     0.505     0.489   1.6516         61     18.97005
 7.06    205.7527  22.9299     111.6956    937.2287 -19.28     0.855     0.346   0.3611         62     37.14127
 3.57    224.5217  19.9263     1776.069   1225.8657 -53.97     1.548     1.416   0.0314         63     51.37114
 3.50    260.5782  15.3597     119161.6    997.2145 -60.88     2.174     2.033   0.0006         64     70.97943
 3.50    266.7132  15.7520     83026.27     67.3777 -78.85     2.116     1.998   0.0009         65     69.26883
 5.20    223.1785  20.7618     822.8046    345.6050 -22.38     1.579     1.463   0.1004         66     76.07755
 3.50    223.2261  21.1133     595.2114    774.7524 -19.32     1.202     1.068   0.0707         67     38.72245
 7.24    219.2476  22.1284     233.6992    740.7268 -18.84     0.845     0.353   0.1781         68     38.33327
 4.32    244.2684  20.1938     1388.327    112.8208  77.16     2.123     1.544   0.0590         69     75.48396
 4.49    256.2215  19.0605     3942.867    612.7909 -37.89     2.503     1.802   0.0256         70     92.77241
 6.09    239.9036  20.8944     728.2102    838.4949 -37.93     1.369     1.007   0.1039         71     69.70042
 5.00    240.0472  23.0406     100.8698   1478.8186 -53.93     0.940     0.464   0.3438         72     31.93135
 3.50    313.2080  14.2020     346094.6    439.2092 -58.52     2.401     2.209   0.0002         73     78.21552
 6.70    252.6677  20.9901     666.7245   1372.6152 -44.30     1.226     0.877   0.1096         74     67.29245
 6.94    251.4614  21.0175     650.1145    107.4959 -45.23     1.084     0.836   0.1075         75     64.33057
 5.43    254.3471  22.3310     193.9016   1352.5072   0.00     0.868     0.476   0.1940         76     34.63441
 3.50    288.3375  17.3356     19309.47   1486.2755 -55.67     1.869     1.782   0.0035         77     62.19747
 3.50    282.7324  19.0007     4165.945   1522.1934 -43.42     1.561     1.489   0.0136         78     52.23945
 6.94    271.2609  21.3034     499.6328   1273.5472 -11.08     1.161     0.926   0.1524         79     70.12935
 3.57    290.6129  20.0736     1550.834    514.7311 -61.03     1.859     1.552   0.0415         80     59.23397
 3.50    319.4862  16.1607     56980.61    905.2509 -61.70     2.069     1.942   0.0013         81     67.95763
 3.50    303.9936  17.6704     14185.24    201.5941 -73.78     1.829     1.708   0.0046         82      60.7338
 5.16    297.8686  20.3180     1238.266   1413.5083 -39.26     2.150     1.549   0.0801         83      91.3062
 3.56    294.7549  19.9656     1713.037   1327.3584 -23.02     1.400     1.322   0.0301         84     47.42513
 3.50    352.2489  14.3770       294567   1345.7200 -52.96     2.313     2.158   0.0003         85     75.48396
 3.50    352.2323  14.3345     306324.5    890.5778 -52.57     2.350     2.174   0.0003         86     76.86188
 6.19    294.2966  20.4777     1068.895   1475.4912 -66.12     1.171     0.977   0.0649         87     63.86271
 3.50    302.8696  21.0571     626.8713    563.5292  64.37     1.321     1.261   0.0741         88     42.77035
 3.50    322.8518  18.1180     9392.846    697.1324 -67.39     1.711     1.657   0.0065         89     56.64607
 6.40    309.7060  21.1104     596.7894     85.4069 -81.45     1.983     0.885   0.1508         90     82.86967
 5.00    322.1810  20.6504     911.6899    641.0074 -76.22     2.195     1.269   0.0961         91      80.6692
 4.49    328.1170  19.8915     1834.013    595.2689 -50.18     1.627     1.559   0.0417         92     70.34283
 5.36    317.8036  22.8022     125.6331    226.3809 -71.76     0.752     0.447   0.2549         93     29.49014
 3.66    347.0935  18.5454     6336.279    866.9109 -38.15     1.821     1.669   0.0107         94     62.43808
 5.35    332.8581  21.4745     426.7656     93.4377  -7.83     1.068     0.836   0.1270         95     49.89039
 4.20    330.3324  21.9772     268.6107   1545.6162  -6.15     0.994     0.631   0.1310         96     32.39753
 4.50    335.7877  21.9061     286.7914   1440.3218 -48.97     0.986     0.855   0.1510         97     39.86721
 3.79    356.5633  18.8180     4929.326    431.6613 -76.63     1.957     1.739   0.0149         98     67.51491
 3.50    350.8575  20.8599     751.6603     54.4747 -39.25     1.290     1.224   0.0608         99     42.06335
 5.14    348.6108  23.1518      91.0459     42.2829 -59.05     0.983     0.545   0.4430        100     37.14127
 3.50    368.9762  18.1061     9496.438    760.8817 -55.02     1.739     1.636   0.0064        101     56.38074
 7.08    351.1112  22.2097     216.8206    920.2661 -17.72     0.939     0.676   0.2729        102     54.48732
 3.50    362.0320  20.0240     1623.334   1500.1698  10.15     1.428     1.398   0.0317        103     47.42513
 3.61    368.2886  19.1967     3478.064    442.6443 -44.79     1.606     1.455   0.0168        104     53.65541
 6.16    353.6877  24.4516     27.50244    350.3493  43.36     0.575     0.334   1.0594        105      26.8277
 3.50    396.0084  16.3488     47913.94    231.2756 -59.51     2.003     1.932   0.0015        106     65.94196
 6.26    360.5867  22.2561     207.7561    533.2850  21.62     1.031     0.915   0.3110        107     59.48656
 3.53    361.4968  21.6534      361.929   1033.7421 -34.22     1.094     0.910   0.1000        108     33.31031
 5.96    363.8832  22.2202     214.7489   1415.6968 -78.20     1.038     0.416   0.1919        109      37.9401
 3.50    373.7502  21.3695     470.1215    992.1270 -58.62     1.191     1.021   0.0849        110     36.73534
 4.95    373.9765  21.4726     427.5176   1083.8434 -45.30     1.443     1.000   0.1459        111     57.43468
 6.12    369.9420  22.1690     225.1144    210.5096  87.58     0.786     0.499   0.1792        112     37.14127
 6.59    371.1455  21.7745     323.7538     71.4292 -16.36     1.204     0.716   0.2004        113     59.73809
 6.58    376.9810  20.6593     904.1945    753.9877  38.43     1.723     0.867   0.0942        114       78.407
 3.50    397.8752  18.4893     6672.149   1461.0035 -57.54     1.678     1.607   0.0090        115     55.30673
 5.17    376.6144  22.8871     116.1833     86.3840  23.01     1.364     0.457   0.3691        116     39.48931
 3.50    398.9585  18.3659     7475.688    354.4046 -56.82     1.759     1.641   0.0085        117     58.21261
 5.97    380.9103  21.6981     347.3466    125.6369 -22.70     0.902     0.682   0.1432        118     45.81702
 3.64    394.5150  20.0656     1562.233   1088.6681 -16.65     1.553     1.372   0.0357        119     51.37114
 3.50    420.3994  16.4459     43817.21    433.1460 -57.35     1.997     1.878   0.0016        120     65.71419
 3.50    416.4439  17.2453     20982.88    837.1794 -67.30     1.895     1.794   0.0033        121     62.91654
 5.36    390.0044  22.5265     161.9626   1195.2917  85.80     0.739     0.674   0.2408        122     35.90973
 6.62    390.2305  22.5184     163.1732    260.4030  71.18     0.744     0.452   0.2445        123     36.73534
 4.81    397.2771  21.9359     279.0266    977.5050 -21.24     1.103     0.780   0.1692        124     43.46585
 5.97    397.9344  21.0654     622.0503    626.5070  15.77     1.528     0.795   0.1135        125     65.02606
 3.50    440.8153  21.1553     572.6249    305.5588 -50.74     1.189     1.082   0.0734        126     38.72245
 6.01    407.6977  22.1732     224.2378    281.6329 -82.40     1.007     0.467   0.1985        127     40.97999
 7.28    415.6719  20.8173      781.804      2.5615  28.95     1.141     0.754   0.0741        128     53.37522
 7.80    404.5128  21.5453     399.8434    526.8889  -1.99     0.784     0.499   0.1288        129     47.42513
 3.50    425.0124  19.1593      3599.76    926.1458 -46.76     1.635     1.521   0.0162        130     53.65541
 3.50    461.8470  15.2040     137527.7    807.3679 -54.81     2.148     2.048   0.0006        131     71.19037
 7.26    413.7131  22.4893     167.6021   1562.2982 -60.78     1.155     0.451   0.3291        132     50.78402
 3.50    438.7642  17.5819     15390.52    251.9271 -54.88     1.813     1.728   0.0043        133       60.238
 4.91    421.8596  20.6224      935.509    158.7295  50.88     1.660     1.444   0.0855        134     73.67449
 0.00    412.6987  99.0000     -16.4707    199.3263  43.64     0.560     0.342  99.0000        135     23.87012
 9.12    415.3152  22.4757     169.7189    558.6304  42.89     0.584     0.328   0.2428        136      37.9401
 6.12    419.5396  21.8494     302.1652   1203.5216  13.28     1.222     0.608   0.1857        137      51.6622
 3.50    433.6358  20.4284     1118.508   1421.9036 -17.73     1.428     1.337   0.0457        138      47.1079
 6.05    427.7109  21.3062     498.3468   1179.3110  20.69     1.296     0.986   0.1447        139     66.39518
 5.64    420.6244  22.6241     148.0312   1579.7715  17.88     0.757     0.446   0.2343        140     31.93135
 7.11    424.8950  22.5687     155.7866   1063.8502 -46.61     0.815     0.670   0.3601        141      51.6622
 6.86    431.8513  21.4099      452.932    717.7710 -64.55     0.930     0.895   0.1468        142     61.22557
 5.00    434.9498  21.1293     586.5134    151.0015  25.47     1.154     0.980   0.0946        143     51.07843
 4.46    468.5386  18.3186     7808.144    850.1890  22.22     7.442     1.903   0.0227        144     163.0027
 3.51    451.1122  18.8101     4965.526     21.1382 -39.37     1.703     1.572   0.0122        145     55.84632
 5.35    446.1109  20.6910     878.2157    122.1262 -32.70     1.653     1.204   0.0916        146     74.08041
 7.20    434.6680  23.1767     88.98523    353.3013  46.61     0.562     0.341   0.3599        147     29.49014
 3.57    448.0235  20.8106     786.6055    884.3464  -1.26     2.252     1.419   0.0855        148     61.95592
 3.50    458.6750  18.7361     5315.536     34.3958 -60.50     1.679     1.537   0.0112        149     54.76182
 5.33    444.1706  22.6391     146.0024    654.5854 -70.39     0.757     0.448   0.2268        150     30.49009
 3.53    464.5988  19.9712     1704.203    468.4730 -73.92     1.596     1.441   0.0329        151      51.6622
 4.28    453.8176  22.1620      226.571   1533.1399  37.42     0.790     0.678   0.1485        152     30.97796
 5.10    461.9113  21.0730     617.7467   1096.1396  54.35     1.156     1.063   0.0968        153     55.03495
 3.50    472.0582  20.1760     1411.229    254.1115 -72.83     1.524     1.321   0.0370        154      48.0533
 5.22    462.3787  21.6460     364.4091    724.6503 -28.34     1.116     0.728   0.1336        155     44.82448
 7.22    457.7005  23.0541     99.62268   1223.6603 -42.96     0.565     0.339   0.3270        156     29.99428
 3.50    472.9619  19.7920      2009.97    734.7728 -38.58     1.496     1.347   0.0260        157      48.0533
 3.50    478.7596  19.4710     2701.488    922.8173 -35.41     1.544     1.447   0.0204        158     50.78402
 3.92    478.7934  20.4682     1078.221   1276.8331 -53.38     1.380     1.256   0.0503        159     49.89039
 4.44    476.5136  22.2752     204.1292   1168.0371 -89.76     0.813     0.676   0.1699        160     31.93135
 4.27    533.7934  17.2573     20753.52    518.6295  28.40     4.107     3.566   0.0083        161     158.2418
 3.50    484.9557  20.3801     1169.406   1070.4277 -66.11     1.365     1.226   0.0407        162     43.80946
 7.96    473.4778  22.3720     186.7246    781.5225  45.02     0.505     0.494   0.2297        163     39.48931
 4.94    496.9649  19.4968     2637.938     82.5904  56.28     2.338     2.068   0.0435        164     105.6208
 5.19    489.7222  20.8345     769.4761    839.5610  85.43     1.974     0.945   0.0971        165     68.83454
 4.09    496.5237  19.6817     2225.034   1186.6776 -15.91     2.961     1.842   0.0453        166     92.77241
 4.58    481.6935  22.5016     165.7124   1309.1306  71.28     0.894     0.694   0.2353        167     35.90973
 3.62    479.8593  22.4998     165.9866    682.6145  17.68     1.030     0.720   0.1962        168     29.99428
 5.99    481.6788  22.4912     167.3082   1520.4889  -0.10     0.921     0.467   0.2463        169      37.9401
