#   1 KRON_RADIUS            Kron apertures in units of A or B                         
#   2 Y_IMAGE                Object position along y                                    [pixel]
#   3 MAG_BEST               Best of MAG_AUTO and MAG_ISOCOR                            [mag]
#   4 FLUX_BEST              Best of FLUX_AUTO and FLUX_ISOCOR                          [count]
#   5 X_IMAGE                Object position along x                                    [pixel]
#   6 THETA_IMAGE            Position angle (CCW/x)                                     [deg]
#   7 A_IMAGE                Profile RMS along major axis                               [pixel]
#   8 B_IMAGE                Profile RMS along minor axis                               [pixel]
#   9 MAGERR_BEST            RMS error for MAG_BEST                                     [mag]
#  10 NUMBER                 Running object number                                     
#  11 FLUXERR_BEST           RMS error for BEST flux                                    [count]
 4.47     94.4127  17.0777     24487.03   1125.4513 -67.03     8.432     4.008   0.0118          1     266.3111
 3.50     47.1609  19.2195     3405.753     46.6974 -18.43     3.115     2.992   0.0350          2      109.716
 3.50     33.0301  18.3103     7868.049    450.1791   3.93     1.743     1.661   0.0084          3     60.64782
 3.50      7.9031  16.2843     50850.95    753.4478   2.44     1.983     1.923   0.0015          4     70.34767
 6.18     12.8639  21.4374     441.6123    858.4266  50.98     1.289     0.732   0.1498          5     60.92287
 3.50      7.2113  22.9080     113.9762   1284.7981 -46.48     0.737     0.563   0.2272          6     23.84204
 6.92      6.0000  23.3991     72.50623   1058.0139   0.00     0.847     0.289   0.4975          7     33.21818
 7.55      4.2469  21.1577     571.3595    947.4111  45.53     1.314     0.771   0.1319          8     69.39051
 4.12      3.8348  20.8940     728.4609     72.4608 -16.44     1.246     1.182   0.0726          9     48.72457
 6.10      2.8667  20.5742     977.9572    936.5207 -10.63     1.625     1.134   0.0794         10     71.52611
 5.45      4.6532  23.4237     70.87976    706.7065 -47.69     0.565     0.339   0.3759         11     24.53325
 4.68      1.4142  22.3631     188.2603   1254.7991  -3.78     1.168     0.488   0.1796         12     31.13995
 3.50     20.2485  22.3259     194.8221    234.9529  16.47     1.096     0.906   0.1987         13     35.64599
 6.38     27.8961  20.7818     807.7733    906.5863  84.86     1.356     1.278   0.1156         14     85.96368
 7.83     24.3722  21.1532     573.7382    897.5001  53.33     1.032     0.802   0.1389         15     73.37225
 7.50     21.4723  22.8051     125.2988    123.0066 -32.35     0.789     0.316   0.3399         16     39.21911
 4.06     69.3732  18.7480     5257.809   1463.3916  74.90     3.177     2.756   0.0254         17     122.9385
 7.74     26.3235  23.3349     76.91711    417.3286 -44.76     0.571     0.337   0.4899         18     34.69526
 3.72     32.4382  21.6285     370.3385   1515.2990  30.41     1.107     0.846   0.1072         19     36.57201
 3.50     33.1804  22.5851     153.4456      7.1900  44.59     0.766     0.561   0.1736         20     24.53325
 3.50     47.1839  24.0812      38.6814   1049.4036  70.29     0.741     0.448   0.5624         21     20.03132
 8.32     47.9779  22.1667       225.59    229.0076   1.06     0.613     0.605   0.2521         22     52.36315
 4.81     62.2807  21.1468     577.1595   1014.5557  61.95     1.392     1.123   0.1172         23     62.27989
 6.14     52.4638  22.4593     172.3014    204.7005   8.76     0.973     0.482   0.2776         24     44.03853
 6.35     63.3292  20.8629     749.6483    894.4313  32.57     1.490     1.316   0.1319         25     91.06358
 3.50     95.1854  16.6313     36936.84    917.0939  -9.20     2.432     1.965   0.0023         26     78.86337
 6.68     63.8519  21.5789     387.6328    889.1374  18.53     1.225     0.942   0.1343         27     47.92118
 3.99     65.5806  21.6073     377.6262    971.4410  42.08     1.049     0.908   0.1140         28     39.64312
 3.50     77.6456  20.0646     1563.755    183.8656  35.74     1.922     1.615   0.0444         29     63.87027
 4.01     80.3084  20.5597     991.0784    542.7675 -74.51     1.942     1.344   0.0725         30     66.18423
 3.50     94.6567  19.1611     3593.927    347.2999   1.29     1.577     1.515   0.0166         31     54.85802
 6.42     88.6536  22.4276      177.407   1026.2157  38.54     0.937     0.744   0.3358         32     54.85802
 3.75     93.2241  21.0398     636.8975    737.8329  -2.89     1.220     1.140   0.0770         33     45.16311
 8.20     87.6823  21.9232     282.3151   1076.8492 -12.12     1.079     0.416   0.2179         34     56.65712
 4.37    106.6409  20.2172     1358.682    974.6325 -73.93     2.125     1.886   0.0713         35     89.20872
 3.50    106.5787  19.5147     2594.807     47.9887 -15.76     1.548     1.459   0.0226         36     53.93597
 8.45    104.3943  21.1157     593.9104    265.9957  54.86     1.476     0.923   0.1844         37     100.8221
 9.66     94.4939  22.4896     167.5569   1248.5023  44.92     0.506     0.494   0.3267         38     50.41104
 3.50    100.2884  21.6597     359.8408    357.1915   0.39     1.135     0.906   0.1090         39     36.11197
 3.50     96.5149  23.4816      67.1969    590.4865 -44.94     0.510     0.489   0.3237         40     20.03132
 5.87     99.9511  22.7470     132.1886    173.4704  86.25     0.780     0.498   0.3115         41     37.91867
 5.94    110.1582  22.2646     206.1346   1458.8864 -14.43     1.146     0.934   0.3337         42     63.34458
 4.28    115.3070  21.6370      367.442    925.0088 -50.53     1.258     1.145   0.1557         43     52.68147
 3.70    125.7528  19.5485     2515.381    300.9926 -16.30     1.591     1.521   0.0253         44      58.6864
 4.21    118.2691  21.1796     559.9893     79.9862  35.99     1.594     1.331   0.1228         45     63.34458
 7.06    113.9025  22.6456     145.1364     66.6563 -18.40     0.921     0.676   0.4217         46     56.36126
 8.59    112.3366  22.7811     128.1061   1000.3244 -45.54     0.575     0.335   0.3252         47     38.35705
 3.50    151.1229  17.4726     17020.11     45.8490 -52.15     1.949     1.851   0.0049         48     77.28745
 3.50    212.4886  14.0079     413862.7    967.6542  40.01     3.048     2.888   0.0003         49     106.1534
 9.18    119.3316  22.8256     122.9543    231.3272 -45.20     0.574     0.335   0.3539         50     40.06263
 4.90    130.0126  21.2675     516.3977     55.4443  37.97     1.241     1.021   0.1204         51     57.24426
 5.54    133.5662  21.9086     286.1256   1498.7036  -0.10     1.148     0.959   0.2249         52     59.25343
 5.33    140.3865  21.4542     434.8308    218.2452 -66.34     1.301     1.032   0.1582         53     63.34458
 4.32    158.7005  18.9321     4437.743     50.5213  14.00     2.556     2.201   0.0205         54     83.83352
 7.56    131.6804  22.6827      140.252   1315.2950  46.43     0.554     0.344   0.2649         55     34.20998
 4.48    152.9119  21.9256     281.6841    879.5300 -60.81     1.011     0.961   0.1727         56     44.79139
 3.72    173.7126  19.0715     3903.055    557.3240  47.42     2.364     2.321   0.0249         57     89.39594
 4.23    183.8768  18.7984     5019.259   1263.0786  -7.93     2.523     2.381   0.0230         58     106.1534
 5.13    166.4995  21.0633      623.254    746.5167 -74.63     1.407     1.236   0.1192         59     68.41997
 4.28    164.1927  21.4982     417.5765   1521.5858  74.81     1.105     0.950   0.1184         60     45.53179
 5.24    162.8947  22.0406     253.3779   1154.2748  52.79     0.950     0.930   0.2175         61     50.74161
 4.89    172.7050  21.1902      554.519    945.0700 -51.52     1.571     1.253   0.1364         62     69.63103
 3.50    185.3256  18.2053     8667.127    378.2397 -28.54     1.786     1.762   0.0079         63     63.08009
 7.50    164.1903  22.0119     260.1592    759.0225  37.12     0.938     0.473   0.2090         64     50.07829
 7.24    168.6113  21.9462     276.3806   1158.9104  47.54     1.111     0.480   0.2107         65      53.6251
 3.94    174.5828  22.2921     200.9833    961.8307  82.06     0.977     0.930   0.2073         66     38.35705
 3.50    237.3644  14.5938     241248.8   1389.7841 -41.09     2.309     2.169   0.0004         67      80.5415
 6.87    181.0341  22.3080     198.0699    461.1556 -54.27     0.926     0.470   0.2536         68     46.26034
 6.16    196.4339  19.8890     1838.306   1066.2972 -20.88     2.031     1.821   0.0715         69     121.0197
 6.78    188.9588  21.2379     530.7018   1070.1791 -24.62     1.548     1.057   0.1187         70     58.02713
 3.50    206.1323  18.9785      4252.02     21.5627 -56.80     1.638     1.562   0.0147         71     57.53558
 3.50    201.2601  20.2884     1272.449    185.9180   6.51     1.443     1.361   0.0430         72     50.41104
 5.23    202.1462  20.9972     662.4259    412.4117  66.29     1.510     1.319   0.1236         73     75.39513
 4.88    201.9580  21.9366     278.8451   1294.5009 -85.51     1.212     0.838   0.1937         74     49.74331
 5.93    205.3313  20.7309     846.5231    353.9930  16.74     1.813     1.438   0.1261         75     98.30323
 3.50    224.9422  17.4697     17065.01   1093.4563 -59.44     1.814     1.775   0.0041         76     65.16595
 3.99    218.7306  19.5824     2438.077   1020.6931  -7.62     2.094     1.983   0.0371         77      83.1963
 4.87    216.3218  20.5087     1038.727   1198.5570  55.51     1.841     1.567   0.0886         78     84.78872
 6.51    203.9402  23.4529     68.99585    452.2255  87.50     0.695     0.417   0.5611         79     35.64599
 4.60    268.1983  18.7019     5485.739    140.7266  65.34     5.964     2.061   0.0327         80     164.9799
 3.82    210.1299  22.4583     172.4617    908.8029  49.34     0.821     0.649   0.1746         81      27.7321
 3.50    223.1118  20.7616     822.9542   1178.3679  -5.05     1.281     1.210   0.0591         82     44.79139
 6.18    213.5688  22.7347     133.6921   1061.7803  21.01     0.736     0.449   0.3008         83     37.02634
 3.89    286.2726  17.5974     15172.27   1328.5978 -54.54     4.071     3.479   0.0107         84     149.9006
 7.11    232.5957  19.7726     2046.311    654.3945  19.87     2.685     1.375   0.0741         85     139.6218
 3.53    242.9650  18.7460     5267.597    566.6058  37.93     1.679     1.645   0.0123         86     59.53492
 3.55    236.5731  19.8807     1852.348    836.9667   6.66     1.498     1.372   0.0309         87     52.68147
 3.50    258.8932  17.9191     11280.94   1426.9111 -51.38     2.259     1.731   0.0069         88     71.29198
 4.05    234.9387  20.9494      692.183    880.2339 -62.63     1.346     1.177   0.0822         89     52.36315
 5.69    244.0083  19.6457     2299.894    660.8113  37.74     2.162     1.852   0.0551         90     116.6584
 3.50    247.6646  19.0486     3986.296    577.4250  67.60     1.633     1.559   0.0154         91     56.65712
 6.01    254.1846  19.6564     2277.448   1369.7998 -47.94     2.427     1.671   0.0593         92      124.291
 6.17    241.2870  20.4793     1067.312    369.2222  30.13     1.736     1.378   0.0999         93       98.133
 7.66    228.4811  22.4624     171.8058    906.4860  44.84     0.514     0.484   0.2532         94     40.06263
 7.03    242.2005  20.7204     854.7502    966.9060 -61.08     1.771     0.956   0.1201         95     94.48753
 4.36    249.6382  21.4184     449.4104   1163.8445 -84.59     1.850     0.892   0.1390         96     57.53558
 6.57    255.1234  20.4560     1090.464     76.2674 -83.10     2.133     1.143   0.1046         97     105.0451
 6.82    243.4088  22.9159     113.1484   1339.8333  80.45     1.073     0.852   0.6401         98     66.68754
 3.50    251.5225  21.9141     284.6736    914.5157  22.95     1.473     1.146   0.1765         99     46.26034
 6.16    261.7776  20.7298     847.3649    410.9438 -50.42     1.595     1.170   0.1104        100     86.15794
 4.50    296.8800  18.8149     4943.384    375.0334  30.08     5.932     2.233   0.0368        101     167.4942
 3.81    279.1085  19.3545      3007.38   1128.7777 -37.13     2.416     1.730   0.0289        102     80.12527
 4.37    264.9361  21.6440     365.0942    271.6232 -73.63     1.138     0.946   0.1365        103     45.89751
 6.46    263.5041  22.5314     161.2294    721.2064 -89.49     0.987     0.733   0.3776        104     56.06383
 3.50    281.3364  19.4165      2840.64    955.4014 -28.15     1.574     1.506   0.0209        105      54.5524
 3.50    266.9327  22.0186     258.5555    767.3180 -16.25     0.981     0.732   0.1262        106     30.04697
 3.50    286.3484  19.8597     1888.539    743.6095  40.15     1.460     1.383   0.0296        107     51.39637
 7.40    278.8119  23.0686     98.30103   1454.3896 -71.06     0.759     0.445   0.4907        108     44.41655
 6.29    279.6088  22.9196     112.7611    884.7463  18.33     0.745     0.451   0.3566        109     37.02634
 3.73    313.6259  18.7396     5298.375    792.7342  28.19     2.366     2.017   0.0171        110     83.39702
 7.37    289.1764  22.1270     233.9824   1177.8871  42.69     0.851     0.670   0.2630        111     56.65712
 7.07    292.0175  23.7064        54.63   1277.2856  87.01     0.742     0.692   1.0409        112     52.36315
 5.13    298.8221  21.4435     439.1355    863.1149  17.37     1.474     1.048   0.1631        113     65.93113
 3.50    374.0452  14.4950     264234.4   1263.0072 -33.49     2.333     2.210   0.0003        114      80.9556
 5.61    315.0114  20.8941     728.4066    803.5080  31.74     1.723     1.262   0.0936        115     62.77437
 3.50    338.2123  17.3367     19288.64    596.3755 -66.87     1.875     1.854   0.0038        116     66.93777
 3.50    332.7775  18.3990     7251.187    789.3983 -34.10     1.680     1.646   0.0089        117     59.25343
 6.26    311.5056  22.3090     197.8772   1549.0146  -1.35     0.805     0.500   0.2199        118     40.06263
 7.97    317.2074  22.5476     158.8447   1061.6068 -71.74     0.763     0.449   0.3355        119      49.0665
 5.00    323.1175  21.1637     568.2322    833.2548  -4.62     1.149     1.073   0.1088        120     56.95144
 5.46    323.2687  21.2581     520.9019    289.3503  -5.53     1.242     1.080   0.1369        121     65.67706
 3.50    328.8228  20.8607     751.1704    720.6425 -72.46     1.375     1.253   0.0669        122     46.26034
 3.50    335.3305  20.0983     1515.979   1146.0575 -32.82     2.232     1.734   0.0509        123     71.05708
 6.41    327.7767  22.0433     252.7515    157.4338  64.09     1.391     0.861   0.3083        124     71.75947
 0.00    322.0162  99.0000    -10.91528   1454.0000  90.00     0.864     0.289  99.0000        125      40.4778
 5.74    335.9540  21.2255     536.7596   1038.2914 -51.54     1.658     1.399   0.1801        126     89.02112
 5.32    334.7170  20.8178     781.4395    661.8060   3.32     1.727     1.269   0.1125        127      80.9556
 3.50    361.4441  19.0269      4066.84    708.8192 -68.97     2.479     2.197   0.0223        128     83.39702
 0.00    329.3398  99.0000    -11.65869    220.3325 -45.30     0.580     0.332  99.0000        129     14.16428
 4.02    375.0766  18.1664     8983.153   1364.3392   5.19     3.340     2.486   0.0143        130     118.6479
 6.59    349.8664  22.2032     218.1222   1576.3282 -74.94     1.358     0.321   0.2230        131     44.79139
 3.50    347.4366  22.0370     254.2078   1599.3663  84.48     0.950     0.617   0.1019        132     23.84204
 5.25    348.1754  22.9911      105.572     40.1509  47.67     0.757     0.568   0.3667        133     35.64599
 3.50    363.7216  19.8663     1877.107    504.4440  69.04     1.459     1.405   0.0301        134     52.04288
 4.73    360.6756  20.7639     821.1797    640.8969 -84.53     1.210     1.133   0.0765        135     57.82543
 7.26    359.7431  21.5031     415.6931   1278.9045 -66.17     1.174     1.052   0.2163        136     82.79341
 5.16    357.1693  22.8113     124.5881   1291.4176  69.78     0.750     0.447   0.2619        137     30.04697
 6.49    357.3419  22.4189     178.8292   1050.6553 -12.61     1.135     0.614   0.3368        138      55.4642
 7.49    363.0229  22.7391     133.1615     99.2650  89.07     1.168     0.847   0.6185        139     75.83734
 7.33    359.0027  22.2612     206.7866   1095.3845 -89.96     0.875     0.486   0.2559        140     48.72457
 7.56    369.7059  21.2740     513.3529   1341.3179  34.94     2.012     1.027   0.2356        141     111.3796
 8.28    365.7765  21.6890      350.261   1284.6234 -65.85     1.036     0.935   0.2592        142     83.59725
 4.23    451.0447  17.8935     11550.46   1220.1050  54.56     7.010     2.619   0.0174        143     185.4926
 6.71    368.1672  21.8217     309.9731    268.3489 -52.80     1.060     0.678   0.2036        144     58.11383
 3.92    401.3127  18.4972       6623.8    825.4194  45.88     3.281     2.709   0.0197        145     120.0487
 3.55    389.2865  18.7398     5297.377   1463.5734  -5.81     1.789     1.699   0.0129        146     63.08009
 6.34    380.2635  21.4941     419.1484    959.4734 -67.00     2.181     1.119   0.2617        147     100.9878
 7.87    368.8943  21.6347      368.217    643.5867  27.32     1.151     0.577   0.1907        148     64.65079
 3.72    377.3903  21.2674     516.4749    163.5931  83.29     1.331     1.253   0.1046        149     49.74331
 3.89    385.7827  20.3936     1154.988    867.8937  84.36     1.357     1.232   0.0477        150     50.74161
 6.27    377.7131  21.8343     306.3981    430.5041 -24.91     1.601     0.716   0.2434        151     68.66389
 6.35    383.5173  21.0414     635.9679   1278.0845  88.46     1.306     1.166   0.1375        152      80.5415
 3.55    392.8902  19.6863     2215.554   1317.9773  52.61     1.645     1.444   0.0278        153     56.65712
 3.50    413.7154  17.5204     16286.45     67.4630 -60.35     1.877     1.839   0.0044        154     66.18423
 3.50    417.2204  17.1716     22456.76   1308.3070  17.11     1.920     1.876   0.0033        155      67.9295
 5.35    391.8077  21.8455     303.2428   1206.6018 -76.03     1.191     0.958   0.2112        156      58.9706
 3.50    719.8947  15.6393      92105.8    199.2038 -41.88    13.551    10.306   0.0050        157     423.9042
 5.07    393.7631  22.8728     117.7257     18.9677  -1.50     0.688     0.425   0.2558        158      27.7321
 3.50    458.0837  15.7908     80109.04     12.6700 -49.85     2.253     2.053   0.0010        159     77.36515
 3.92    413.4766  21.3943     459.4994    665.7608  68.88     1.487     0.880   0.1085        160     45.89751
 3.50    416.9565  22.0331     255.1229   1158.3895  81.84     1.470     1.033   0.1891        161     44.41655
 5.02    410.1406  21.6062     378.0366    750.1879   9.17     1.114     0.725   0.1329        162     46.26034
 5.64    421.2555  21.3928     460.1125    102.5200  61.15     1.205     1.020   0.1514        163      64.1315
 6.17    419.6847  20.1643     1426.554    889.6652 -66.61     0.907     0.718   0.0416        164     54.59295
 6.45    421.7512  21.8801     293.7383    893.2390 -21.82     1.314     0.898   0.2618        165      70.8214
 6.55    425.8313  22.5417     159.7039    962.7754 -80.47     1.045     0.847   0.4235        166     62.27989
 4.90    439.7298  20.3284     1226.399    908.9675 -25.61     1.890     1.699   0.0801        167     90.51111
 3.50    466.1190  16.4698     42864.27   1075.1609 -32.82     2.018     1.954   0.0018        168     70.34767
 5.59    428.7175  23.1093     94.68481   1431.8264 -31.22     0.864     0.605   0.4783        169     41.69851
