#   1 KRON_RADIUS            Kron apertures in units of A or B                         
#   2 Y_IMAGE                Object position along y                                    [pixel]
#   3 MAG_BEST               Best of MAG_AUTO and MAG_ISOCOR                            [mag]
#   4 FLUX_BEST              Best of FLUX_AUTO and FLUX_ISOCOR                          [count]
#   5 X_IMAGE                Object position along x                                    [pixel]
#   6 THETA_IMAGE            Position angle (CCW/x)                                     [deg]
#   7 A_IMAGE                Profile RMS along major axis                               [pixel]
#   8 B_IMAGE                Profile RMS along minor axis                               [pixel]
#   9 MAGERR_BEST            RMS error for MAG_BEST                                     [mag]
#  10 NUMBER                 Running object number                                     
#  11 FLUXERR_BEST           RMS error for BEST flux                                    [count]
 4.35     53.0761  16.5595     39463.04     63.6156   3.16     4.592     4.073   0.0094          1     340.7569
 3.90     16.5106  18.7845     5083.932    984.8412 -83.95     3.665     1.856   0.0395          2     185.0345
 4.22     17.7176  19.2001     3466.959     91.1998  -3.81     1.747     1.724   0.0415          3     132.6275
 3.50     14.7234  18.1494     9125.229   1445.5381 -51.67     1.979     1.966   0.0150          4     125.7382
 3.50     24.5794  21.1369     582.4489    367.1604  47.32     1.419     0.833   0.1294          5     69.39974
 3.50     59.7903  16.4666     42990.39   1078.2527  41.10     2.422     2.360   0.0038          6     152.1161
 3.50    182.1497  12.9553      1091148   1107.1863 -20.11     4.737     4.374   0.0003          7     289.5977
 3.50     80.1555  16.5110     41266.46    537.4584  -5.33     2.379     2.363   0.0040          8     150.7332
 4.47     75.1599  20.1119     1497.026    127.4333  -3.95     1.643     1.477   0.0918          9     126.5682
 3.50    121.7121  16.0692      61992.2    788.9768 -27.41     2.473     2.450   0.0027         10     155.8558
 8.06     82.2965  21.2662     517.0227    421.1638 -30.74     0.846     0.599   0.2213         11     105.3493
 4.48     96.3192  19.7575     2074.938     55.8991 -28.59     1.568     1.396   0.0627         12     119.7676
 7.14     89.5106  20.7435     836.7953    376.3407 -11.83     1.108     0.883   0.1653         13     127.3928
 5.56     93.6527  22.5858     153.3525   1047.2648  49.94     0.551     0.343   0.3159         14     44.60214
 6.32    117.2951  22.4650     171.4011    452.2873 -45.55     0.540     0.349   0.3242         15     51.16217
 3.50    193.4188  14.4798     267957.1    317.9649 -54.00     2.828     2.710   0.0007         16     176.3426
 3.50    162.3634  16.7070     34450.21   1468.0619 -38.65     2.334     2.289   0.0046         17     146.5061
 4.70    234.6395  16.3815     46495.43    403.6199 -41.48     5.853     4.829   0.0106         18     453.1247
 3.75    170.3269  18.3187     7807.862    877.1570 -20.86     2.076     1.959   0.0190         19     136.5177
 6.17    164.6802  21.2048     547.1351   1445.7671   1.43     1.117     0.819   0.2140         20     107.8054
 7.31    171.3210  19.8327     1936.121    325.1627 -25.90     1.436     1.335   0.1033         21     184.1838
 5.99    166.7937  21.4964     418.2589    104.3359 -70.54     0.958     0.664   0.2254         22     86.82507
 8.37    169.3876  21.4220     447.9158   1367.1927  18.98     0.760     0.444   0.2105         23     86.82507
 6.96    179.0130  22.2117     216.4323   1047.0000  90.00     0.828     0.289   0.2949         24     58.78085
 7.87    178.4737  21.4383     441.2333    574.5369 -47.58     0.503     0.495   0.1816         25     73.78712
 5.91    192.5116  20.6157      941.245   1350.6075 -46.09     1.344     1.047   0.1465         26     126.9812
 5.78    210.2057  18.8276     4885.997    826.7241  -9.62     3.092     2.057   0.0588         27     264.4644
 5.00    206.2774  20.0246     1622.426    548.8272  67.76     1.493     1.251   0.0833         28     124.4829
 5.81    208.5168  20.5534     996.8929    349.4588  58.95     1.414     1.296   0.1557         29     142.8882
 4.24    212.2595  20.0419     1596.714   1305.9584  30.59     1.586     1.394   0.0781         30     114.8588
 6.14    228.8307  18.9920     4199.637    562.0215  17.12     2.935     2.288   0.0747         31     289.0549
 3.50    259.5902  15.3813     116809.5    997.2161  -5.29     2.567     2.511   0.0015         32     161.4651
 6.59    209.5162  22.2853     202.2473   1226.4763  47.55     0.501     0.498   0.3108         33     57.88338
 8.03    209.6646  21.9112     285.4452    684.3248  45.47     0.574     0.335   0.2523         34     66.31374
 3.52    223.7149  20.0470     1589.315   1225.4631 -13.58     1.531     1.366   0.0629         35      92.0919
 6.94    221.2888  20.3490     1203.413    344.5749   1.65     1.672     0.940   0.1425         36     157.8583
 3.50    265.5734  15.8005     79398.54     67.4374  24.63     2.520     2.495   0.0022         37     160.8153
 6.86    222.0241  21.2264     536.3427    774.9658  42.61     0.796     0.776   0.2009         38     99.20712
 5.45    243.9687  20.2322     1340.076    112.7754  60.21     1.670     1.178   0.1125         39     138.7995
 4.31    255.0827  19.2103     3434.637    612.6411 -10.04     2.408     1.928   0.0535         40     169.0676
 3.50    312.1872  14.2608     327861.4    439.1593 -13.39     2.853     2.748   0.0006         41     177.8207
 3.50    287.5016  17.4207     17853.07   1486.1432 -24.92     2.206     2.117   0.0083         42     136.1337
 3.96    281.9189  19.1342     3684.033   1521.9921  -7.56     1.743     1.687   0.0361         43     122.3621
 3.50    318.4661  16.2060     54649.14    905.2997 -31.32     2.485     2.425   0.0031         44     155.5195
 5.56    289.1143  19.9794     1691.323    514.4774  59.58     1.786     1.509   0.1066         45     165.9422
 3.62    302.7957  17.7190     13563.98    201.6053 -18.82     2.146     2.092   0.0111         46     138.7995
 3.50    351.3184  14.4401     277942.1   1345.6716  -9.05     2.751     2.668   0.0007         47     171.8318
 3.50    293.8499  20.1643     1426.556   1327.3081 -28.02     1.589     1.283   0.0697         48     91.52167
 6.84    292.7826  20.9794     673.3693   1476.2544 -33.56     0.968     0.831   0.1793         49     111.1527
 3.50    351.2143  14.3989     288686.1    890.5995 -24.50     2.763     2.683   0.0007         50     173.3484
 3.67    321.6669  18.1607     9030.818    697.1138   7.97     2.137     2.027   0.0166         51     138.4218
 6.51    301.7118  20.9427     696.5079    562.5656  11.11     1.463     0.771   0.1941         52     124.4829
 6.37    327.4981  19.8777     1857.381    595.2062 -79.29     1.538     1.296   0.0957         53     163.7189
 8.73    322.3299  20.8567     753.8956    639.1662 -12.92     1.100     0.411   0.1532         54     106.3386
 4.82    346.1763  18.4631     6835.375    866.8652  16.10     2.071     1.945   0.0279         55     175.4497
 4.58    355.4592  18.7807      5101.98    431.6225 -79.36     2.277     1.981   0.0375         56     176.0454
 3.95    367.7827  18.1052     9504.518    760.9399 -31.92     2.137     1.988   0.0170         57     148.6347
 4.51    349.5560  20.5571     993.4784     54.4217  -8.97     1.724     1.072   0.1230         58     112.5568
 3.95    360.8824  20.1322     1469.375   1500.1036  33.05     1.558     1.339   0.0760         59     102.8347
 3.69    366.8826  19.2941     3179.495    442.6497   2.79     1.791     1.626   0.0388         60     113.4832
 3.50    394.8527  16.3993     45740.02    231.3117  56.18     2.480     2.350   0.0037         61     153.8272
 6.76    372.2422  21.9262     281.5154    991.5938 -72.07     0.752     0.455   0.2763         62     71.62703
 3.50    397.7915  18.4392      6987.28    354.4063  49.92     2.020     1.901   0.0193         63     124.4829
 6.60    380.5380  21.4542     434.8281      1.4591 -88.02     1.091     0.497   0.1807         64     72.35423
 3.50    419.2194  16.4972      41793.8    433.1660  58.82     2.402     2.366   0.0040         65     152.4598
 3.64    396.8806  18.6137     5950.073   1460.9520  11.57     1.995     1.799   0.0229         66     125.7382
 4.28    393.7094  20.2987     1260.445   1088.5785  72.26     1.476     1.300   0.0920         67     106.8297
 3.50    415.3580  17.3116     19741.37    837.2755  -5.21     2.234     2.182   0.0077         68        140.3
 9.07    395.7974  21.3145     494.5425    626.4155 -71.76     0.761     0.454   0.2096         69     95.44178
 7.57    396.6870  22.3865     184.2417    976.6553 -43.56     0.573     0.335   0.3619         70      61.3946
 6.21    413.0601  20.5341     1014.719      1.8796  85.14     1.889     0.874   0.1253         71     117.1156
 3.50    437.5339  17.6199     14861.05    251.9063  -3.42     2.186     2.125   0.0099         72     136.1337
 3.50    460.6579  15.2612     130469.3    807.4008  -6.92     2.612     2.525   0.0014         73     163.7189
 3.55    423.9710  19.3391     3050.468    926.2772 -23.94     1.764     1.558   0.0382         74     107.3187
 5.69    420.2740  20.6071     948.7612    159.0849  -7.92     1.694     1.092   0.1602         75     139.9264
 5.42    432.4408  20.3958     1152.575   1422.1628  47.41     1.444     1.264   0.1242         76     131.8357
 4.23    449.6169  18.8380     4839.544     21.3219 -74.14     1.977     1.846   0.0330         77     146.8631
 5.01    439.7756  21.4490     436.9114    305.7711  44.23     1.065     0.762   0.2019         78     81.21742
 6.34    444.2969  20.7957     797.4452    122.5361 -53.61     1.247     0.856   0.1595         79     117.1156
 4.31    457.3157  18.7423     5285.659     34.5039 -50.59     1.926     1.899   0.0305         80     148.6347
 5.42    467.4598  18.3954     7274.783    850.4033  22.81     5.808     1.894   0.0485         81     325.0308
 6.11    446.4990  22.0568     249.6095    884.0000  90.00     1.151     0.289   0.2744         82     63.07695
 5.26    463.3741  19.8431     1917.521    468.0500 -11.39     1.588     1.489   0.0836         83     147.5742
 4.78    471.5053  19.5979     2403.548    734.9933  75.91     1.661     1.558   0.0641         84     141.7848
 4.66    470.9929  20.1705     1418.386    254.0509  81.26     1.580     1.381   0.0960         85     125.3212
 4.59    477.5762  19.4297     2806.162    922.8270 -28.19     1.754     1.579   0.0534         86     138.0431
 3.50    477.5721  20.6925     877.0228   1276.2677 -70.77     1.351     1.163   0.0990         87     79.91786
 4.54    483.7100  20.4556     1090.817   1070.1747 -64.26     1.311     1.252   0.1044         88     104.8512
 5.73    495.4494  19.8464     1911.717     82.4905  59.85     2.032     1.487   0.1027         89     180.7408
 5.56    494.2783  19.7702     2050.798   1189.0267 -44.11     2.945     1.336   0.1055         90     199.2042
 4.75    532.4761  17.3029     19898.87    518.9060  38.90     4.016     3.205   0.0169         91     309.8586
 7.60    481.4957  21.8509     301.7473    682.4513  76.47     0.500     0.497   0.2551         92     70.89238
 3.55    512.2040  17.8916     11571.08   1302.7456   6.51     2.781     1.966   0.0141         93     150.3854
 9.24    491.5049  21.3537     476.9868    840.4951  45.00     0.502     0.498   0.1921         94     84.37881
 6.96    502.8134  20.2515     1316.472    762.1334 -76.42     1.439     1.154   0.1345         95     163.0782
 5.63    514.6790  19.3464      3029.91   1460.5060  33.08     2.939     1.497   0.0771         96     215.1246
 4.99    501.2173  21.3563     475.8577    863.7655  77.90     1.013     0.848   0.1911         97     83.75607
 6.23    513.5327  20.8910     730.4922   1178.6987 -75.52     1.119     0.911   0.1708         98     114.8588
 8.49    518.4864  21.4138     451.2961    642.0143  -0.61     0.821     0.500   0.2323         99     96.53259
 3.50    587.6213  14.3565     300190.2   1315.8365 -12.88     2.721     2.709   0.0006        100     172.1362
 3.56    539.9918  20.2293      1343.57    999.8557 -16.36     1.458     1.302   0.0716        101     88.61547
 3.84    558.5293  19.7834     2025.947   1041.7600 -40.61     1.726     1.463   0.0591        102     110.2067
 3.50    630.7018  13.7227     538150.8    483.2278   5.71     2.938     2.877   0.0004        103     184.1838
 3.82    580.0692  18.1964      8738.34    144.9193  80.66     2.006     1.926   0.0170        104     136.5177
 3.75    572.2161  18.5718     6184.394   1242.7043  29.82     1.896     1.793   0.0219        105     124.9028
 3.70    581.6140  18.2208     8544.141    319.2900  84.88     2.056     1.960   0.0171        106     134.5866
 4.91    570.6909  20.0347     1607.325     45.6481  49.17     1.819     1.369   0.0950        107     140.6727
 7.35    558.4872  22.3379     192.6785   1014.4709  50.10     0.501     0.498   0.3826        108     67.87428
 5.56    573.8704  20.4442     1102.318   1337.1954 -74.50     1.471     1.086   0.1263        109      128.212
 6.25    570.3349  20.0909     1526.266   1446.6495 -12.10     1.990     1.104   0.1194        110     167.8244
 5.73    596.4547  18.4719      6779.96    782.5542 -65.84     3.138     2.569   0.0472        111     294.4381
 5.59    583.8234  21.2731     513.7671     75.9971  82.67     0.951     0.748   0.1835        112     86.82507
 4.92   1001.2201  19.4934     2646.385    542.7369 -86.68     1.812     1.613   0.0626        113     152.4598
 6.43   1597.7439  21.1386     581.4873    654.8246 -74.46     1.242     0.630   0.1633        114     87.42595
 6.94   1599.6904  22.1590     227.1927     18.3134  44.79     0.558     0.343   0.2075        115     43.41254
 7.14   1576.4854  22.1650     225.9447    157.4998  44.55     0.507     0.493   0.3187        116     66.31374
 4.83   1541.2513  19.2671     3259.663    134.9763  52.87     1.723     1.649   0.0490        117     147.2191
 3.50    881.5797  13.0845     968701.7    183.9359 -25.72     3.041     2.966   0.0002        118     190.3343
 5.17    896.1798  20.5345     1014.342    538.6572 -20.99     1.596     1.272   0.1420        119     132.6275
 3.50    880.0001  15.5013     104588.5   1592.3890  67.93     2.579     2.485   0.0016        120     158.8501
 7.77    888.5492  20.9347     701.6167    326.2957  31.43     0.996     0.689   0.1813        121     117.1156
 4.78    878.1487  18.5739     6172.142    224.4544  88.32     5.943     1.861   0.0509        122     289.0549
 6.98    885.5248  20.9653     682.1708   1499.8888   3.37     1.025     0.930   0.1955        123     122.7892
 8.37    886.5057  21.4969     418.0526   1305.5269 -47.06     0.504     0.495   0.1917        124     73.78712
 7.02    877.1157  20.2714     1292.495   1176.9069 -65.49     1.476     0.943   0.1267        125     150.7332
 6.56    876.4882  21.3719     469.0828    960.7388  68.84     1.145     0.537   0.2132        126      92.0919
 7.42    875.6602  21.4448      438.619    543.2203 -14.94     0.752     0.447   0.1929        127     77.92789
 3.50    858.9732  14.4979     263528.6   1224.4209  -4.68     2.753     2.739   0.0007        128     173.9514
 9.60    867.4836  21.1023     601.2621    937.5118 -43.88     0.501     0.498   0.1611        129     89.20428
 7.08    859.0778  20.7052     866.7788   1156.7413   5.56     1.455     0.735   0.1681        130     134.1971
 6.59    858.3289  21.3569     475.5912   1340.0994 -26.28     0.848     0.602   0.1941        131     84.99697
 3.89    869.0726  19.6117     2373.035   1102.9994   6.99     1.825     1.785   0.0579        132     126.5682
 6.84    844.8874  21.2390     530.1296   1063.5879  26.82     1.092     0.575   0.1978        133     96.53259
 5.03    842.8681  20.6390     921.2882   1106.3450 -12.89     1.418     1.251   0.1442        134     122.3621
 6.40    837.5648  19.8358     1930.528   1247.5009  76.40     1.522     1.464   0.0975        135     173.3484
 5.34    836.3746  20.2308      1341.78    298.4919 -47.33     1.459     1.316   0.1077        136     133.0216
 7.35    832.0206  22.4582     172.4647    102.6929  61.96     0.895     0.214   0.3529        137     56.04535
 3.50    822.4543  18.6483     5763.601    654.3831  60.36     2.010     1.887   0.0235        138     124.9028
 3.86    802.8203  18.7496     5250.181   1378.5323  80.44     1.905     1.845   0.0272        139      131.438
 3.50    798.0511  17.5611     15688.21    695.6246  87.04     2.676     2.132   0.0106        140     152.4598
 3.97    800.0863  19.6094     2378.049     41.1826  84.98     1.738     1.594   0.0543        141     118.8901
 3.80    773.9722  19.5969     2405.678   1427.2468  86.26     2.525     1.713   0.0650        142     143.9831
 3.94    766.2651  20.4489     1097.584    391.8520  61.13     1.502     1.218   0.0955        143     96.53259
 3.87    742.2836  20.2816     1280.499    556.6754 -32.48     1.591     1.422   0.0889        144     104.8512
 3.50    739.2838  22.7144     136.2135   1025.6289  40.93     0.570     0.335   0.1998        145     25.06424
 5.61    737.2999  21.3171     493.3715   1157.4828  55.05     1.078     0.817   0.2101        146     95.44178
 3.50    723.6309  14.1366     367598.1    404.8293 -29.16     2.834     2.773   0.0005        147     178.7018
 6.45    735.8962  21.2578     521.0524    649.7789  27.60     0.990     0.767   0.2133        148     102.3243
 3.50    726.2197  16.0649     62236.04    848.3931   9.61     2.486     2.436   0.0027        149     156.1913
 5.50    726.7856  20.6836      884.214   1178.2947  53.65     1.179     1.156   0.1438        150     117.1156
 7.92    720.5832  21.6276     370.6508   1395.1797 -19.75     0.747     0.450   0.2472        151     84.37881
 4.62    715.3133  20.5179     1030.018    808.2141  -2.95     1.457     1.192   0.1162        152     110.2067
 4.01    708.3893  20.5534     996.8657   1163.8235  76.09     1.459     1.172   0.1034        153     94.89169
 5.72    703.7200  19.9879      1678.14   1338.8798  58.94     1.915     1.487   0.1139        154     176.0454
 3.61    702.1442  19.7756     2040.659    952.2445 -41.71     1.611     1.467   0.0539        155     101.2959
 7.59    699.2138  21.3613     473.6942    583.4164  71.29     0.761     0.452   0.1862        156     81.21742
 8.20    687.0832  20.7379     841.0692   1213.1519  79.73     1.051     0.760   0.1728        157     133.8064
 4.79    685.1599  19.7929     2008.308    644.3716 -63.46     1.616     1.437   0.0721        158     133.4146
 8.26    681.3788  19.4735     2695.251    472.0266 -13.81     1.720     1.263   0.0887        159     220.1757
 5.21    680.2807  20.0034     1654.405    544.0564 -31.27     2.175     1.319   0.1051        160     160.1629
 3.50    648.0242  16.0847     61110.69   1464.2292 -82.81     2.438     2.429   0.0028        161     155.5195
 5.91    654.3412  21.5601     394.4141    870.4225 -81.46     1.001     0.476   0.2051        162     74.49324
 3.82   1552.1313  17.2302     21276.53    682.1388 -11.09     4.029     3.595   0.0134        163      263.274
 3.81    639.2222  18.0823     9707.164    536.7762  33.19     2.153     2.046   0.0163        164     145.4302
 7.56    644.4535  20.9179     712.6039    653.3860 -25.37     1.539     0.624   0.2051        165     134.5866
 5.88    630.8974  21.3097     496.7174    805.9020 -18.33     1.317     0.649   0.2192        166      100.257
 4.59    623.1654  20.8029     792.2063   1581.1930 -26.50     1.169     1.109   0.1293        167     94.33837
 5.01    604.8732  20.7052     866.7698    586.5619 -43.17     1.257     1.117   0.1357        168     108.2899
 3.71   1541.9044  19.9388      1755.89    654.4996 -86.72     1.636     1.370   0.0623        169     100.7778
