#   1 KRON_RADIUS            Kron apertures in units of A or B                         
#   2 MAGERR_APER            RMS error vector for fixed aperture mag.                   [mag]
#   3 Y_IMAGE                Object position along y                                    [pixel]
#   4 X_IMAGE                Object position along x                                    [pixel]
#   5 THETA_IMAGE            Position angle (CCW/x)                                     [deg]
#   6 FLUX_APER              Flux vector within fixed circular aperture(s)              [count]
#   7 A_IMAGE                Profile RMS along major axis                               [pixel]
#   8 B_IMAGE                Profile RMS along minor axis                               [pixel]
#   9 FLUX_RADIUS            Fraction-of-light radii                                    [pixel]
#  10 FLUXERR_APER           RMS error vector for aperture flux(es)                     [count]
#  11 MAG_APER               Fixed aperture magnitude vector                            [mag]
#  12 NUMBER                 Running object number                                     
 3.50   0.0001    182.7405   1107.2815 -34.01     794535.9     5.694     4.919      9.370     73.11893  13.2997          1
 3.89   0.0028     54.0678     63.6179  -6.92     28184.84     4.656     4.450     12.270     73.18516  16.9250          2
 3.68   0.0165     17.3637    984.8643 -88.08     4818.614     3.945     1.796      8.366     73.16033  18.8427          3
 3.50   0.0231     18.7794     91.0175 -64.26     3438.122     1.540     1.445      3.908     73.16033  19.2092          4
 3.50   0.0080     15.4458   1445.5846 -51.60     9987.444     1.656     1.523      4.172     73.16861  18.0514          5
 5.58   0.2990     10.2966   1183.4696  -2.39     265.6285     0.786     0.714      3.647     73.13549  21.9893          6
 5.93   0.3845      7.9055   1469.7234 -62.96     206.4763     0.891     0.213      1.445     73.11065  22.2628          7
 0.00  99.0000      5.0201     54.9799  45.00    -247.8498     1.229     0.289    -48.493     67.79842  99.0000          8
 6.28   1.3574      4.2469    145.0632 -10.48     52.46118     1.031     0.624      2.222     65.57342  23.7504          9
 5.18   0.5228     18.1515    384.1561  42.53       152.02     0.978     0.838      2.900     73.17689  22.5952         10
 4.30   0.0030    235.8859    403.0980 -62.15     26105.87     5.675     4.962     17.355     73.07751  17.0082         11
 7.30   0.2967     24.4480    383.4140 -78.67     267.8533     1.489     0.404      4.304     73.18516  21.9803         12
 3.50   0.0017     60.5787   1078.2400  78.50     45645.88     1.980     1.820      4.716     73.17689  16.4015         13
 3.63   0.1452     25.4014    367.1157 -13.67     547.3295     1.355     1.112      3.400     73.16033  21.2044         14
 7.62   1.3342     27.9211   1357.2938  87.31     59.51205     0.837     0.454      5.024     73.11065  23.6135         15
 4.76   0.2481     31.3545   1108.9049  75.04     319.9528     0.854     0.706      3.465     73.09408  21.7873         16
 7.29   0.6897     34.4380    326.1239 -84.93     115.1701     1.042     0.952      2.142     73.14378  22.8967         17
 6.89   0.1616     35.2352   1110.4044 -83.18     491.5771     1.143     0.792      3.855     73.16861  21.3210         18
 5.47   0.2012     39.7402   1170.7202 -35.51     394.7066     1.312     0.617      4.231     73.13549  21.5593         19
 3.50   0.3803     38.8173   1521.2510  34.17     208.9548     1.138     0.596      2.532     73.17689  22.2499         20
 0.00  99.0000     36.6734    334.0000 -28.22    -146.4021     0.910     0.211    -11.800     73.20998  99.0000         21
 0.00   3.2796     42.5088   1233.0178 -63.10     24.22329     1.201     0.496      7.203     73.15205  24.5894         22
 5.60  99.0000     40.1198   1225.9401 -56.84    -21.66758     1.032     0.386      2.323     73.13549  99.0000         23
 4.62   0.2190     43.1543    915.5667 -39.00     362.9664     1.055     0.712      4.213     73.19344  21.6503         24
 3.50   0.0018     80.9682    537.4006 -63.19     44268.54     1.863     1.768      4.548     73.15205  16.4348         25
 7.60   0.2894     44.8834    441.2556  63.30     274.3094     0.870     0.216      2.576     73.11065  21.9544         26
 8.16   0.1606     43.3650     46.9430 -28.77     494.7644     0.927     0.207      2.694     73.17689  21.3140         27
 3.50   0.7725     47.1420    473.7140  63.43     102.7875     0.926     0.202      1.324     73.11893  23.0201         28
 7.42   0.1282     47.3209     47.5859  42.35      619.863     0.603     0.311      3.619     73.18516  21.0693         29
 6.53  99.0000     47.3486     29.0000  -0.00    -93.07616     0.807     0.477      3.564     73.20998  99.0000         30
 6.90   0.3756     48.2545    440.0000   0.00     211.6843     0.713     0.436      3.447     73.20998  22.2358         31
 6.12   0.3657     51.0360   1435.1759 -34.24     217.2511     0.783     0.497      2.726     73.16033  22.2076         32
 7.35  99.0000     52.3333    266.6667  45.00    -223.0939     0.577     0.333      2.596     73.11065  99.0000         33
 5.25  99.0000     56.3026   1263.6053  41.67    -12.41337     0.588     0.324      0.291     73.14378  99.0000         34
 3.92   0.0614     75.8943    127.6812 -33.15     1293.609     1.254     1.163      3.683     73.11065  20.2705         35
 0.00   1.2580     72.8095    953.8096  45.00     63.12699     1.181     0.289      7.086     73.12721  23.5495         36
 4.18   0.1029     92.0422    377.0393 -77.55     772.2426     1.894     1.601      5.372     73.19344  20.8306         37
 5.50   0.2910     82.9585    421.5509 -54.03     273.1007     1.270     0.623      2.968     73.18516  21.9592         38
 3.50   0.0012    122.5924    788.9217 -59.46     65517.41     1.960     1.816      4.675     73.17689  16.0091         39
 0.00  99.0000     83.6667    179.0218  27.82    -341.9442     0.932     0.206      5.589     73.17689  99.0000         40
 3.64   0.0356     97.3301     56.0065 -20.83     2231.403     1.350     1.269      3.796     73.19344  19.6786         41
 0.00   0.3235     92.0239   1075.6587 -61.52     245.6961     0.916     0.210    -30.591     73.19344  22.0740         42
 8.46   0.3208     92.1013    495.2714 -63.06     247.5125     0.886     0.214      2.765     73.11065  22.0660         43
 0.00  99.0000     94.3855     89.6816  47.31    -319.8445     0.592     0.322      0.000     73.17689  99.0000         44
 6.58   0.1395     99.1556    452.2036 -33.18     569.8506     1.374     0.783      4.445     73.20171  21.1606         45
 6.57   0.2594     96.5928   1075.6500  22.40     306.4377     1.188     0.206      3.313     73.19344  21.8341         46
 3.50   0.0003    194.4159    317.8738 -63.56     279140.9     2.296     2.048      4.919     73.20998  14.4354         47
 3.50  99.0000    107.9521    185.3652 -61.41    -142.9236     0.933     0.206      0.131     73.17689  99.0000         48
 7.24   9.4053    114.0205    270.3128 -89.22     8.447561     0.829     0.464      3.758     73.16033  25.7332         49
 7.18   4.7947    118.0000     66.5487  57.15     16.58198     0.773     0.319      4.636     73.20998  25.0009         50
 3.50   0.0021    163.1416   1468.1309 -54.85     37116.07     1.856     1.772      4.540     73.13549  16.6261         51
 6.41   0.4301    132.4888    418.1703 -25.83     184.6795     1.473     0.469      2.725     73.13549  22.3840         52
 3.50  99.0000    131.3822     62.3194 -47.20    -170.1259     0.591     0.323      0.686     73.18516  99.0000         53
 0.00  99.0000    141.0000    178.9660   0.00    -256.9253     0.878     0.289     -7.552     73.14378  99.0000         54
 3.50   0.0094    171.1748    877.1529  75.67     8457.705     1.557     1.509      4.167     73.19344  18.2319         55
 7.25   0.4132    152.3333   1279.3923 -43.23     192.3857     0.601     0.315      2.039     73.20171  22.3396         56
 7.27   0.1620    160.4779   1148.2367  15.26     490.3668     1.493     0.914      8.172     73.14378  21.3237         57
 3.90   0.0819    165.8038   1445.6472   5.07     970.4896     1.275     0.973      3.632     73.20171  20.5825         58
 5.62   0.0599    172.4979    324.9993  86.12     1325.801     1.358     1.232      6.308     73.12721  20.2438         59
 3.50  99.0000    163.1070    126.3048 -63.08     -177.486     0.936     0.201      0.742     73.08579  99.0000         60
 6.78   0.5290    163.9584    629.0416 -45.00     150.2283     1.223     0.289      6.045     73.17689  22.6081         61
 3.91   0.1878    167.4874    104.0908 -30.28     422.7774     1.111     0.868      3.324     73.09408  21.4847         62
 0.00  99.0000    166.0419    274.0000  90.00    -73.74091     0.849     0.289     -8.616     73.17689  99.0000         63
 3.86   0.2029    170.9909   1368.0988 -45.99     391.3223     1.303     0.607      2.757     73.12721  21.5687         64
 6.93   0.2684    169.0000    651.7692  90.00     295.9059     0.679     0.421      3.228     73.14378  21.8721         65
 5.11   0.1340    181.0742    574.6080  50.74     592.9388     1.296     0.874      4.785     73.18516  21.1175         66
 7.63   0.1750    187.0528   1354.2338  56.77     454.2792     1.421     0.779      7.031     73.18516  21.4067         67
 4.35   0.0702    193.5174   1350.4446 -41.44     1131.948     1.305     0.928      3.754     73.13549  20.4154         68
 4.08   0.0219    211.6083    827.3955  -9.36     3633.541     3.731     1.899     10.160     73.15205  19.1492         69
 3.60   0.0405    207.4825    548.8375 -64.15     1963.239     1.396     1.179      3.900     73.15205  19.8176         70
 6.41   0.4084    196.2269    267.9209   3.76     194.5337     0.670     0.417      2.657     73.16033  22.3275         71
 4.39   0.0251    231.0004    562.1113 -29.07     3162.423     3.228     2.772     10.845     73.14378  19.2999         72
 5.63   0.0788    209.3964    349.7953  42.44     1008.322     1.540     1.144      5.234     73.13549  20.5410         73
 7.54   0.4885    196.6142   1159.6317 -45.43     162.6845     0.614     0.304      3.684     73.17689  22.5216         74
 7.66   0.0857    205.2521    301.1124  75.49      926.108     1.533     0.512      6.083     73.11065  20.6333         75
 3.50   0.1144    211.3650    684.4688  86.20      694.525     1.579     1.065      3.847     73.16861  20.9458         76
 3.50   0.0487    213.0156   1305.8958  64.26       1632.4     1.267     1.116      3.562     73.15205  20.0179         77
 5.43   0.3232    204.3531    250.7012  59.54     245.4594     0.717     0.627      3.362     73.06093  22.0751         78
 6.65   0.1917    205.8955    937.1046 -45.00     413.8139     1.210     0.289      3.799     73.06093  21.5080         79
 5.65   0.0292    229.7400    414.9763 -37.42     2722.183     1.751     1.628      8.568     73.18516  19.4627         80
 6.99   0.1264    207.3063    415.3468 -43.11     628.4877     0.571     0.336      2.717     73.12721  21.0543         81
 3.85   0.0414    224.5091   1225.8743 -77.75     1918.413     1.418     1.212      3.841     73.11893  19.8426         82
 6.29   0.0939    223.5637    345.8375 -52.05     846.9112     1.667     1.442      7.535     73.20998  20.7304         83
 6.63   0.2052    219.0222    740.5000 -56.89     386.9103     1.457     0.611      6.044     73.10236  21.5810         84
 0.00   5.6512    211.5958    608.7021 -48.74     14.05622     0.589     0.322      0.000     73.14378  25.1803         85
 8.31   0.0748    217.0000    414.5498 -90.00     1062.715     0.741     0.498      4.449     73.20998  20.4840         86
 3.50   0.0007    260.5682    997.2298 -57.01     119734.1     1.971     1.854      4.641     73.18516  15.3545         87
 3.96   0.0959    223.1898    774.7103 -28.21     828.5381     1.147     0.906      3.204     73.15205  20.7542         88
 8.02   0.1133    219.0000   1126.6863 -61.65     701.1083     0.893     0.215      4.167     73.14378  20.9355         89
 3.50   0.0010    266.6972     67.3779 -75.77     83588.53     1.966     1.875      4.655     73.12721  15.7446         90
 4.10   0.0647    244.3301    112.7150  74.17     1227.044     2.024     1.468      5.903     73.11065  20.3278         91
 0.00  99.0000    224.4765     84.0626 -32.38   -0.4124289     0.789     0.315      0.000     73.11893  99.0000         92
 4.34   0.5604    232.0000     20.0353   0.00     141.7086     0.831     0.289      2.104     73.12721  22.6715         93
 4.59   0.0221    256.4008    612.6790 -30.02     3592.836     2.267     1.671      7.047     73.17689  19.1614         94
 5.94   0.1046    239.8350    838.3710 -20.31      759.811     1.451     0.794      5.161     73.16033  20.8482         95
 6.27   0.1252    250.8141    107.8769 -74.34     635.2026     1.569     1.055      6.014     73.20998  21.0427         96
 6.44   0.4594    240.3460   1478.8618 -47.85      172.888     1.076     0.282      2.558     73.13549  22.4556         97
 3.50   0.0002    313.2050    439.2146 -58.88     342887.3     2.225     2.052      4.850     73.13549  14.2121         98
 7.47   0.1206    253.0191   1372.5363  88.52     659.0875     0.935     0.498      4.563     73.17689  21.0026         99
 4.78   0.3693    254.2934   1352.3800  21.43     215.0662     0.819     0.369      2.081     73.14378  22.2186        100
 3.50   0.0040    288.3638   1486.2595 -50.06     19820.61     1.730     1.592      4.295     73.16861  17.3072        101
 5.48   0.3387    261.3333     84.2922 -47.26     234.4524     0.559     0.342      1.370     73.12721  22.1249        102
 5.95   0.1717    270.6706   1273.9196 -40.56     462.5418     1.404     1.014      5.778     73.11893  21.3871        103
 3.50   0.0180    282.7119   1522.1971 -53.12     4405.749     1.396     1.295      3.856     73.14378  18.9400        104
 3.98   0.0446    290.4916    514.7990 -75.95      1781.54     1.798     1.477      5.261     73.13549  19.9230        105
 3.50   0.0054    303.9724    201.5991 -71.10     14615.11     1.677     1.559      4.237     73.14378  17.6380        106
 3.50   0.0014    319.4947    905.2546 -62.41     57704.91     1.905     1.795      4.565     73.11065  16.1470        107
 3.91   0.0424    294.7829   1327.3722  22.06     1873.343     1.246     1.243      3.801     73.16861  19.8685        108
 3.83   0.0762    298.4533   1413.6970 -37.05     1041.599     2.489     1.309      6.008     73.10236  20.5057        109
 3.50   0.0003    352.2306    890.5782 -55.05       304111     2.185     2.027      4.783     73.16033  14.3424        110
 5.46   0.0681    294.2862   1475.5724 -56.07     1167.286     1.236     0.945      5.162     73.15205  20.3821        111
 3.50   0.2049    285.7057    430.6276 -41.61     387.5335     0.575     0.332      0.942     73.12721  21.5792        112
 3.50   0.0003    352.2426   1345.7185 -50.78     293023.2     2.162     2.010      4.740     73.14378  14.3827        113
 3.80   0.0927    302.6447    563.4781  78.23     856.4402     1.226     1.003      3.790     73.13549  20.7183        114
 3.50   0.0080    322.8607    697.1566 -65.12     9896.484     1.562     1.502      4.233     73.16033  18.0613        115
 7.29   0.1458    308.2585     85.3362  -9.80     544.8711     1.278     0.681      5.499     73.12721  21.2093        116
 3.50   0.0799    322.0946    641.3365 -62.74     993.6785     2.440     1.055      4.788     73.13549  20.5569        117
 4.71   0.0426    328.1742    595.2105  73.58     1865.746     1.458     1.438      5.512     73.15205  19.8729        118
 5.18   0.0815    310.7306    421.6347 -39.96     975.0013     0.561     0.338      1.817     73.16861  20.5775        119
 3.50   0.4691    314.0000    326.0000  90.00     169.4053     0.857     0.289      2.566     73.17689  22.4777        120
 3.50   1.1687    331.2698    183.0000   0.00     68.01292     0.855     0.444      0.693     73.19344  23.4685        121
 7.84   0.4804    318.3266    226.3266 -45.00     165.2861     0.571     0.337      3.152     73.11065  22.5044        122
 3.81   0.0152    356.5799    431.6029 -76.34     5217.432     1.846     1.569      4.877     73.15205  18.7564        123
 6.20   0.6416    323.0000    968.9377   0.00     123.9136     0.852     0.289      5.110     73.20998  22.8172        124
 3.80   0.0119    347.1124    866.9248 -32.94     6651.853     1.695     1.476      4.414     73.10236  18.4926        125
 5.47   0.2965    335.7198   1440.2043  84.72     268.0196     1.131     0.665      3.427     73.16861  21.9796        126
 4.72   0.1815    332.9469     93.2883 -11.73     437.5773     1.125     0.860      3.905     73.11893  21.4474        127
 4.12   0.1835    330.2740   1545.6711 -32.71     432.5573     0.997     0.657      2.861     73.09408  21.4599        128
 7.04   0.2162    339.9679    803.0641 -46.74     367.5548     0.904     0.491      3.590     73.16861  21.6367        129
 0.00  14.1223    339.3253   1453.3494 -44.01     5.622167     0.581     0.331      0.000     73.11065  26.1752        130
 3.50   1.1968    340.3113    179.6887  45.00     66.31452     0.558     0.343      0.710     73.07751  23.4960        131
 3.94   0.0778    350.8347     54.4691  76.81     1020.835     1.181     1.089      3.765     73.16861  20.5276        132
 3.51   0.0079    368.9974    760.8605 -60.60     10012.49     1.551     1.481      4.103     73.20998  18.0486        133
 7.14   0.1994    351.0782    920.1328 -13.25     398.1045     0.988     0.607      4.979     73.10236  21.5500        134
 6.94   0.3551    348.7854     42.1722 -15.90     223.7721     0.890     0.343      2.890     73.17689  22.1755        135
 3.57   0.2339    359.9514    532.6904  36.10     339.4796     1.656     1.032      3.746     73.11065  21.7230        136
 3.50   0.0411    362.0010   1500.1412   8.09     1936.587     1.306     1.171      3.617     73.20998  19.8324        137
 3.71   0.0201    368.2740    442.6691 -49.15     3955.464     1.494     1.273      4.000     73.10236  19.0570        138
 3.50   0.6388    353.2529    349.8478 -18.72     124.3845     1.225     0.679      3.115     73.16033  22.8131        139
 3.50   0.0016    396.0186    231.2769 -59.08     48743.55     1.810     1.767      4.494     73.20171  16.3302        140
 3.56   0.1279    361.2871   1033.8175 -47.32     620.8931     0.935     0.779      2.760     73.15205  21.0675        141
 3.50   0.6812    360.0421    151.0000  90.00      116.656     0.873     0.289      1.216     73.17689  22.8827        142
 6.36   0.2039    369.5382    210.7691  82.98     389.6865     1.090     0.403      4.377     73.16033  21.5732        143
 4.57   0.1593    374.3807   1083.7490 -45.04      498.849     1.277     0.931      3.705     73.17689  21.3051        144
 4.09   0.1075    373.8611    992.1259  74.32     738.6652     1.049     0.879      3.499     73.13549  20.8789        145
 7.43   0.1963    371.0736     71.6402  18.67     404.7161     0.950     0.681      3.782     73.15205  21.5321        146
 6.78   0.0797    377.0766    754.1260  38.20     996.1424     1.702     0.883      6.954     73.11893  20.5542        147
 3.50   0.0114    397.8547   1460.9972 -66.73     6960.071     1.530     1.480      4.123     73.21825  18.4435        148
 7.65   0.0733    372.6172    752.9365  28.61     1084.151     0.945     0.202      2.722     73.17689  20.4623        149
 3.50   0.0101    399.0069    354.3418 -79.11     7834.193     1.578     1.455      4.068     73.20998  18.3150        150
 6.92   0.5070    376.7931     86.0456  27.46     156.7677     1.524     0.222      2.028     73.19344  22.5619        151
 3.50   0.0473    394.4658   1088.6558 -38.77     1680.907     1.346     1.287      3.869     73.13549  19.9861        152
 3.50   0.0018    420.3878    433.1454 -56.35     44566.15     1.876     1.736      4.509     73.19344  16.4275        153
