#   1 KRON_RADIUS            Kron apertures in units of A or B                         
#   2 MAGERR_APER            RMS error vector for fixed aperture mag.                   [mag]
#   3 Y_IMAGE                Object position along y                                    [pixel]
#   4 X_IMAGE                Object position along x                                    [pixel]
#   5 THETA_IMAGE            Position angle (CCW/x)                                     [deg]
#   6 FLUX_APER              Flux vector within fixed circular aperture(s)              [count]
#   7 A_IMAGE                Profile RMS along major axis                               [pixel]
#   8 B_IMAGE                Profile RMS along minor axis                               [pixel]
#   9 FLUX_RADIUS            Fraction-of-light radii                                    [pixel]
#  10 FLUXERR_APER           RMS error vector for aperture flux(es)                     [count]
#  11 MAG_APER               Fixed aperture magnitude vector                            [mag]
#  12 NUMBER                 Running object number                                     
 3.50   0.0002    181.0296   1105.8228 -42.25     909664.5     6.881     6.329      9.612     137.5153  13.1528          1
 3.54   0.0058     52.5032     61.8569   6.63      25618.2     7.099     6.376     16.525     137.3907  17.0286          2
 3.50   0.0035     58.9559   1076.9435  80.37     42092.17     2.158     2.036      5.394     137.4997  16.4895          3
 3.50   0.0363     15.7470    983.4686 -87.92     4115.862     4.573     2.016      8.566      137.453  19.0138          4
 3.73   0.2453     23.8459    365.4448  11.92     608.9732     1.434     1.383      4.895     137.5619  21.0885          5
 3.50   0.7042     16.2665    382.9738 -57.39      212.105     1.490     1.235      3.491     137.5308  22.2336          6
 3.50   0.0422     17.0171     89.4665 -23.70     3541.875     1.716     1.678      4.710     137.5464  19.1769          7
 3.50   0.0164     13.8082   1444.2325 -50.19     9135.015     1.769     1.738      4.732     137.5308  18.1482          8
 4.05   0.8702     13.3555    839.4698 -68.25     171.5613     1.795     1.158      6.222     137.4686  22.4640          9
 4.15  99.0000     14.6512   1561.4030 -38.91    -124.5679     1.002     0.868      1.338     137.6086  99.0000         10
 3.50  99.0000      9.1762   1182.2531  63.97    -71.20878     1.114     1.082      2.606      137.593  99.0000         11
 3.64  99.0000      5.9200   1467.9447   2.76    -100.4349     1.195     1.150      5.990     131.6324  99.0000         12
 4.51   0.4198      3.6409    143.2160  56.00     309.9821     1.759     1.589      6.672     119.8395  21.8217         13
 4.61   0.3604      3.7293    183.8148   1.75     362.7533     1.337     1.145      5.393     120.3917  21.6510         14
 0.00  99.0000      2.6827    843.3784  20.12    -9.918645     0.943     0.580      5.657     113.6257  99.0000         15
 7.85   1.8140      3.3090    161.3352 -43.71     70.48322     0.567     0.338      3.404      117.732  23.4298         16
 6.10   0.5403      1.9306    302.4750   3.63     217.7152     1.017     0.770      6.103     108.3235  22.2053         17
 3.50   1.7134     23.0219    381.4543  30.95     87.20039     1.368     1.245      8.210     137.5775  23.1987         18
 4.55  99.0000     17.2580   1213.4838   6.75    -98.42891     0.955     0.928      2.376     137.4374  99.0000         19
 5.73   1.2085     15.4904    192.9885  -3.25     123.5469     0.790     0.499      3.713     137.4841  22.8204         20
 4.13   0.3463     33.0241   1108.5377  63.75     431.4555     2.110     1.333      5.746     137.5619  21.4627         21
 5.12  99.0000     22.8372    696.7354  15.02    -131.2458     0.929     0.844      0.237     137.5308  99.0000         22
 0.00  99.0000     20.9592    212.0401 -46.19    -123.7754     0.811     0.765      4.864     137.5619  99.0000         23
 5.50   0.7165     24.3048   1451.6566 -46.65     208.2597     1.023     0.860      4.022     137.4063  22.2535         24
 7.45  99.0000     21.3406    883.3214 -45.85    -50.96704     0.575     0.334      1.255     137.4686  99.0000         25
 4.98   0.3050     32.4049    324.9523 -19.39     489.9913     1.570     1.318      5.438     137.6086  21.3245         26
 6.99  10.3178     24.8344    529.8267  45.19     14.47576     0.760     0.567      2.606     137.5308  25.1484         27
 0.00   5.7148     25.9974    701.2047  -0.88      26.1237     0.932     0.740     -8.692     137.4686  24.5074         28
 6.95   3.3612     23.6851    201.6656 -44.07     44.40642     0.570     0.337      2.670     137.4374  23.9314         29
 6.46   1.1817     33.6780     14.7194  82.00     126.3026     1.082     0.904      3.917     137.4374  22.7965         30
 4.23   0.3733     37.9955   1169.1996  16.63     399.9959     1.355     1.226      4.986     137.4841  21.5449         31
 4.78   1.8114     43.3518    438.6536 -54.40     82.45377     1.744     1.376      3.786     137.5308  23.2595         32
 6.54  99.0000     33.5299   1066.4965  70.90    -92.56395     0.976     0.407      4.723      137.453  99.0000         33
 3.50   0.0037     79.0630    535.8602 -62.01     40182.88     2.009     1.977      5.329     137.4686  16.5399         34
 3.67   1.6827     37.0430   1519.9758 -48.34     88.79337     1.177     1.064      5.622     137.5775  23.1790         35
 0.00  99.0000     29.6498   1486.2804  48.74    -152.9384     0.560     0.340      0.000      137.453  99.0000         36
 3.95   0.5519     41.5129    913.8262 -66.99     270.5977     1.220     1.086      4.211     137.5153  21.9692         37
 3.50   1.6886     38.4746   1224.7139 -32.27     88.37185     1.302     0.820      3.141     137.4063  23.1842         38
 4.68   1.1216     49.2970    263.4306 -79.50     133.0546     1.648     1.214      4.138     137.4219  22.7399         39
 4.52   1.1570     42.5328    226.6916  37.05      129.019     1.066     0.788      3.947      137.453  22.7734         40
 7.32  99.0000     39.4763   1126.5161 -43.94    -142.9443     0.504     0.495      3.022     137.4219  99.0000         41
 3.50   6.2061     41.6014   1000.3078  -4.50     24.05567     1.022     0.615      2.063     137.4686  24.5970         42
 0.00  99.0000     46.5404   1429.2076  19.51    -291.2979     0.905     0.891      5.433     137.6086  99.0000         43
 5.04   1.1235     46.7716    664.5160 -28.15     132.9084     1.022     0.796      3.776     137.4997  22.7411         44
 6.98   0.8748     45.8466    473.1279  44.45     170.6572     0.808     0.685      4.848     137.4686  22.4697         45
 3.50   1.3771     49.4517   1433.9252   8.93     108.3704     1.249     0.995      2.436     137.4219  22.9627         46
 6.66   1.0116     50.4632    119.8189  88.19     147.6558     0.918     0.737      5.043     137.5464  22.6269         47
 0.00  99.0000     49.4858    879.5351 -64.51    -221.2831     0.500     0.498      0.000     137.4219  99.0000         48
 4.00   2.9905     65.0373   1146.2700 -19.42     49.94482     1.455     1.392      1.510     137.5308  23.8038         49
 0.00   3.5117     58.7776    468.9168  54.51     42.52688     1.087     0.522      6.525     137.5153  23.9783         50
 7.78   0.4982     54.2825    319.3522 -41.35     299.6085     0.562     0.339      0.861      137.453  21.8586         51
 4.60   0.6334     57.3253   1240.1503 -31.73      235.624     0.863     0.589      3.504     137.4219  22.1194         52
 3.50   0.0956     74.1105    126.4833 -36.10     1561.907     1.530     1.474      4.278     137.4374  20.0659         53
 0.00  99.0000     66.8107   1414.1892 -69.13    -123.9053     1.198     0.929   -145.327      137.453  99.0000         54
 0.00  99.0000     65.5495   1514.6031 -73.16    -236.5524     0.924     0.799    -52.503     137.6086  99.0000         55
 3.50   0.0025    120.9312    787.4824 -57.20     60188.18     2.073     2.034      5.324     137.4219  16.1012         56
 7.50   0.5276     68.4357     17.8169  35.71     283.1599     1.151     0.973      5.265     137.5619  21.9199         57
 0.00  99.0000     70.9651   1320.5903 -84.80    -165.0246     1.112     0.932      6.672     137.5308  99.0000         58
 3.83   0.0064    234.0933    401.6226 -45.79      23402.4     9.644     8.194     23.418     137.4686  17.1268         59
 3.59   0.5007     81.3172    419.7298 -85.96      298.049     1.602     1.353      3.940     137.4063  21.8643         60
 6.29  99.0000     73.4404   1255.7075 -58.14      -97.884     0.952     0.539      3.695     137.3752  99.0000         61
 3.90   0.2102     89.6596    375.3848 -14.03     710.5981     2.441     2.077      7.538     137.5153  20.9209         62
 3.50   1.3930     78.7103   1031.9065 -22.65     107.1243     1.134     1.001      3.663     137.4063  22.9753         63
 6.49  99.0000     73.9819    732.3007  89.78    -87.50597     0.725     0.670      1.301     137.4686  99.0000         64
 3.50   0.0712     95.5663     54.3909  51.62     2098.865     1.658     1.655      4.808     137.5308  19.7450         65
 3.50   0.0006    192.5904    316.2847 -63.44     255807.2     2.961     2.390      5.950     137.5153  14.5302         66
 6.31   1.3005     82.9323    930.9177  37.71     114.7828     1.231     1.035      3.309      137.453  22.9003         67
 5.38   0.6606     87.5712    757.1959  61.74       226.07     1.374     1.216      6.532     137.5153  22.1644         68
 5.60   1.6389     84.9324   1559.1282  58.80     91.03799     1.169     0.614      1.708     137.3907  23.1519         69
 0.00  99.0000     87.0815   1358.2363 -69.50    -214.0665     1.154     1.013    -81.869     137.4997  99.0000         70
 6.34   1.7479     86.6410    862.2183 -36.08     85.46865     1.383     1.055      7.509     137.5619  23.2205         71
 5.11   1.3594     90.7756   1043.8887  54.94     109.8363     1.555     1.059      4.906     137.4841  22.9481         72
 3.78   0.3403     90.5975    494.1282  81.08     439.1085     1.228     1.172      4.424     137.5775  21.4436         73
 5.96  99.0000     87.9500    810.6520 -59.04    -54.97435     1.152     0.679      2.006     137.5464  99.0000         74
 7.27   7.9369     84.0238    843.5171  58.19     18.81611     0.805     0.310      1.414     137.5153  24.8637         75
 6.96  99.0000     85.7783    923.1915 -46.11    -150.0924     0.760     0.561      1.101     137.4997  99.0000         76
 3.82   0.3788     97.1525    451.0917 -16.71      393.982     2.196     1.322      7.505     137.4063  21.5613         77
 5.00   0.4778     94.6540   1074.7657  36.16     312.5365     1.365     1.159      5.559     137.5153  21.8127         78
 8.28   4.3700     86.6779    735.3154  45.35     34.15109     0.565     0.340      0.520     137.4219  24.2165         79
 4.25  12.8149     94.2043    387.5448   0.76     11.66295     0.927     0.726      3.710     137.6241  25.3830         80
 6.56  99.0000     95.8181    559.6128  71.51    -33.26546     0.746     0.449      2.294     137.4841  99.0000         81
 7.17   1.0163     93.5128    870.5064 -44.88     146.8147     0.514     0.485      1.744     137.3907  22.6331         82
 8.22  99.0000     93.6777    667.6960 -46.00    -166.2634     0.559     0.342      0.162     137.3907  99.0000         83
 5.57   0.5434    101.6471    517.3776  40.57     274.9142     1.095     0.938      5.505     137.5464  21.9520         84
 5.75   0.5875    112.8001    268.6048  65.26     254.1143     1.678     1.406      4.821     137.4686  22.0374         85
 0.00  99.0000    106.8065   1420.9231 -54.99     -114.547     1.092     0.781    -13.588     137.5308  99.0000         86
 7.34   0.4499    106.3212   1098.3352  38.03     331.6985     0.987     0.868      4.432     137.4219  21.7481         87
 4.71   2.1145    107.3404    861.3599  41.75     70.63661     0.979     0.859      5.595     137.5308  23.4274         88
 6.30   1.5080    106.1865    180.1313 -42.16     99.09149     0.824     0.664      4.944      137.593  23.0599         89
 4.32   0.9741    114.3147    414.2264 -71.35     153.2879     1.316     1.033      3.622     137.4997  22.5862         90
 3.50  99.0000    116.6593    152.4440  88.98    -114.0796     1.188     0.965      2.306     137.4997  99.0000         91
 4.56   0.3348    116.2464     65.1732  11.72     446.2495     1.762     1.154      7.218     137.5775  21.4261         92
 0.00  99.0000    109.9876   1513.4553   2.39    -382.3784     1.010     0.771      6.061     137.5775  99.0000         93
 3.85   3.3896    116.0682    989.4073 -19.19     44.08371     1.228     1.077      1.833      137.593  23.9393         94
 0.00   5.1102    117.5243    911.9736 -62.07     29.22075     1.044     0.659      6.266     137.4997  24.3858         95
 0.00  99.0000    112.6601   1411.6680 -45.33    -310.7226     0.580     0.332      0.000      137.453  99.0000         96
 5.98  99.0000    114.5148   1578.5339  47.34    -267.9182     0.505     0.494      1.438     137.4063  99.0000         97
 3.70   0.6292    125.3379    492.5833   3.06     237.3361     1.713     1.248      4.851     137.4997  22.1116         98
 3.50   0.0044    161.4548   1466.8226 -54.15     33822.02     1.970     1.933      5.127     137.5619  16.7270         99
 0.00  99.0000    118.4862   1400.5142 -45.04    -333.4336     0.503     0.497      0.000     137.4063  99.0000        100
 4.11   0.5810    128.2080    884.2949  61.76     256.9647     1.036     0.870      3.751     137.4841  22.0253        101
 6.76  99.0000    120.6424   1436.3108  46.99    -131.1352     0.577     0.333      1.278     137.4686  99.0000        102
 4.53   0.4556    130.2060    416.2736  57.94     327.9114     1.102     1.059      4.421     137.5775  21.7606        103
 3.99  99.0000    127.2104   1476.9792  79.81    -49.36459     0.886     0.738      1.442     137.4841  99.0000        104
 0.00  99.0000    122.6954    867.3506  42.87    -58.54026     0.572     0.336      0.000     137.3596  99.0000        105
 6.84  99.0000    126.1398   1371.8470 -45.71    -162.6565     0.761     0.572      3.522     137.4997  99.0000        106
 5.53   0.5921    141.1429    884.2939  52.30     252.0371     2.329     1.036      4.878     137.4219  22.0463        107
 7.98   1.1753    135.9272   1130.5630 -45.79     127.0626     1.045     0.901      3.125     137.5153  22.7900        108
 0.00  99.0000    129.4938    461.4677  78.84    -79.79044     0.500     0.499      0.000     137.4374  99.0000        109
 5.93   1.0567    134.4130     97.8696 -63.58     141.4079     1.112     0.573      4.140      137.593  22.6738        110
 0.00  99.0000    138.0558   1599.6447 -89.12    -27.29347     1.090     0.478      6.542     104.0928  99.0000        111
 5.05   2.4114    145.7942    352.3351 -51.85     61.96539     1.481     1.254      3.881      137.593  23.5696        112
 7.46  99.0000    134.3024   1274.6630  43.25    -251.3222     0.565     0.339      3.391      137.453  99.0000        113
 3.50   0.0195    169.2852    875.6418 -68.51     7674.791     1.823     1.787      5.077     137.4841  18.3373        114
 4.03  99.0000    150.6898   1278.8584  72.69    -65.82908     1.240     1.089      3.455     137.4374  99.0000        115
 3.50   1.1301    154.4591     80.7073 -48.65     132.0542     1.139     0.952      3.372     137.4219  22.7481        116
 4.10   0.3264    164.2565   1444.3588  51.65     457.4422     1.599     1.386      5.454     137.4841  21.3992        117
 4.97  99.0000    155.3039   1578.5997  44.99    -198.3024     1.015     0.894      2.782     137.4841  99.0000        118
 5.33   0.1593    207.7797    348.2331  43.15      937.349     2.397     1.657     10.280     137.5308  20.6202        119
 4.66 248.7209    164.9023    574.8923  77.87    0.5998946     1.442     1.087      6.579     137.3907  28.6048        120
 0.00  99.0000    154.6779    822.9031   8.95    -97.60806     0.733     0.673      0.000     137.4063  99.0000        121
 3.50   0.3334    165.7311    102.5888 -27.00     448.2339     1.371     1.226      4.096      137.593  21.4212        122
 6.37   0.8121    155.9932   1007.4714 -87.59     183.9701     0.790     0.499      2.050     137.5775  22.3881        123
 7.72   0.3388    165.8160   1054.6110 -30.57     440.7321     1.402     1.251      8.410     137.4841  21.4396        124
 5.29   0.7301    159.0999    491.2162   9.72     204.4949     1.163     0.720      2.490     137.4841  22.2733        125
 4.82   1.8533    168.4566   1367.4496 -10.39     80.57278     1.311     1.213      2.652     137.4997  23.2845        126
 0.00   3.6581    164.4116   1196.3029  10.55     40.80629     1.049     0.910      6.293      137.453  24.0232        127
 4.70   1.3595    167.8858    649.6248   1.54     109.8359     1.369     1.140      5.048     137.4997  22.9481        128
 4.30   0.3279    179.1838    573.4161  29.87     455.4868     1.836     1.480      4.608     137.5153  21.4038        129
 6.37  99.0000    168.7838    168.6011  71.45    -138.0482     0.755     0.450      1.095     137.4686  99.0000        130
 5.92   0.5934    174.9443   1199.0182 -74.34     251.7089     1.198     1.159      6.648     137.5308  22.0478        131
 0.00  99.0000    172.5069     30.0436  89.14    -242.6915     0.830     0.681      0.000     137.3907  99.0000        132
 7.22  99.0000    172.9824   1017.2438  89.15     -47.4753     0.688     0.429      3.289     137.5464  99.0000        133
 5.22   1.1370    185.8885   1353.4348 -86.38     131.3217     1.682     1.552      2.588     137.4841  22.7542        134
 3.89   0.2155    191.7777   1349.0513 -14.74     693.3024     1.449     1.429      4.190     137.5775  20.9477        135
 0.00  99.0000    182.4289     58.2628 -47.61     -172.372     1.098     0.734  -1029.751     137.5153  99.0000        136
 3.53   0.0450    209.8705    826.0511  -8.35     3316.391     5.112     2.351     10.931      137.453  19.2483        137
 6.93   0.3719    189.4461   1026.0288 -10.76     401.7001     1.459     1.347      8.448     137.5775  21.5402        138
 3.77   0.0563    229.0276    560.6634 -21.29     2654.181     4.108     3.773     11.206     137.5308  19.4902        139
 6.24  99.0000    186.3875    834.7411 -21.62    -112.0647     1.142     0.860      6.262     137.5464  99.0000        140
 7.52   0.8938    183.4922    493.5123  45.64     166.9297     0.502     0.498      3.012     137.3907  22.4937        141
 5.68   0.5272    194.1933    266.3272  -1.40     283.4216     1.870     1.234      3.537     137.5775  21.9189        142
 3.50   0.0910    205.7529    547.4427  63.58      1640.85     1.507     1.494      4.631     137.5464  20.0123        143
 3.50   0.0019    264.9552     65.7536 -50.95     76815.36     2.195     2.108      5.524     137.5775  15.8364        144
 5.83   0.7726    194.8752    447.8389 -56.33     193.2753     1.100     0.979      4.352     137.4997  22.3346        145
 3.50   0.0013    258.9338    995.8009 -40.44     113336.8     2.230     2.119      5.441      137.593  15.4141        146
 7.96   0.7969    193.7061   1158.2716 -23.86     187.2985     1.082     0.880      6.489     137.4374  22.3687        147
 3.50   0.1092    211.4034   1304.6565 -42.51     1369.242     1.532     1.512      4.451     137.6241  20.2088        148
 3.81   0.5839    209.9437    683.1042 -79.22     255.5626     1.702     1.387      4.688     137.4063  22.0313        149
 4.43   0.3691    202.4641    249.1790 -50.77     404.6927     1.296     1.190      5.191     137.5619  21.5322        150
 4.09   0.9310    204.8055    182.1850 -42.90     160.3545     1.107     0.937      2.696     137.4686  22.5373        151
 6.48   5.3728    204.5180    935.3230  -9.34     27.78345     1.115     0.878    -23.889      137.453  24.4405        152
 5.85   0.1300    221.6086    343.9922  22.25     1148.298     2.256     2.120     10.128     137.4686  20.3999        153
