#   1 NUMBER                 Running object number                                     
#   2 FLUX_BEST              Best of FLUX_AUTO and FLUX_ISOCOR                          [count]
#   3 FLUXERR_BEST           RMS error for BEST flux                                    [count]
#   4 MAG_BEST               Best of MAG_AUTO and MAG_ISOCOR                            [mag]
#   5 MAGERR_BEST            RMS error for MAG_BEST                                     [mag]
#   6 KRON_RADIUS            Kron apertures in units of A or B                         
#   7 X_IMAGE                Object position along x                                    [pixel]
#   8 Y_IMAGE                Object position along y                                    [pixel]
#   9 A_IMAGE                Profile RMS along major axis                               [pixel]
#  10 B_IMAGE                Profile RMS along minor axis                               [pixel]
#  11 THETA_IMAGE            Position angle (CCW/x)                                     [deg]
         1     546123.1     196.0455  13.7116   0.0004  3.50   1107.5068    180.8025     5.305     4.911 -40.47
         2     40204.24     193.8792  16.5441   0.0052  3.82     63.7599     52.3876     4.889     4.352  12.65
         3     5485.978     105.8842  18.7066   0.0210  3.50    985.1421     15.3538     4.152     1.817  89.51
         4     3773.076     59.10995  19.1130   0.0170  3.50     91.4487     17.1948     1.575     1.489  25.82
         5     9648.225     61.65346  18.0937   0.0069  3.50   1445.7733     13.1969     1.619     1.607  19.73
         6     372.0013     49.57125  21.6284   0.1447  4.82    384.7507     16.1952     1.040     0.832 -82.74
         7     186.8147     39.67636  22.3763   0.2306  5.14   1183.2109      8.6855     0.736     0.647  55.80
         8     329.5613     51.09687  21.7599   0.1684  7.33    145.8148      2.7085     0.875     0.617 -33.09
         9     908.4659     69.55448  20.6590   0.0831  4.92    367.3350     23.7039     1.400     1.202  33.24
        10      45172.5     73.31686  16.4176   0.0018  3.50   1078.4691     58.4521     2.004     1.825  60.08
        11     324.7379     62.88665  21.7759   0.2103  6.44    383.1711     22.8706     0.903     0.881  64.69
        12     663.5773     85.63603  21.0001   0.1402  5.73   1110.2778     32.3587     1.909     0.974  61.87
        13     353.8103     69.00026  21.6829   0.2118  8.26    327.5183     31.9549     0.834     0.695  -0.16
        14     114.0623     24.78562  22.9119   0.2360  4.55   1488.5518     29.5238     0.502     0.495  53.04
        15     226.6095     30.35607  22.1666   0.1455  3.50   1521.2543     36.4591     0.962     0.704  88.55
        16     281.9377     35.59564  21.9294   0.1371  3.50   1170.7378     37.5751     1.001     0.831  74.65
        17     240.5214     33.93911  22.1019   0.1532  3.50    915.3849     41.3325     0.925     0.818 -71.33
        18     221.2571     49.57125  22.1925   0.2433  5.84   1435.5917     48.2341     0.939     0.620 -73.14
        19     212.8651     41.10231  22.2345   0.2097  7.43    439.4663     44.4676     0.505     0.493  45.21
        20     43587.69     71.46044  16.4564   0.0018  3.50    537.7455     79.1055     1.905     1.803  -7.17
        21     143.9149     33.93911  22.6595   0.2561  7.23    265.6837     48.9591     0.919     0.209 -62.34
        22     70.31348     15.17803  23.4372   0.2344  3.50    881.6414     49.6731     0.585     0.328 -43.79
        23     1579.123     57.12804  20.0587   0.0393  3.68    128.1347     74.2168     1.453     1.362  16.43
        24     636.7502     83.36411  21.0449   0.1422  6.56    421.5560     81.3308     1.444     0.928  14.70
        25     64389.45     72.26189  16.0327   0.0012  3.50    789.1948    120.5688     1.945     1.857 -13.45
        26     2341.362     62.27311  19.6311   0.0289  3.77     56.2917     95.9662     1.594     1.443 -62.18
        27     933.5336     101.2501  20.6295   0.1178  5.83    377.3141     89.3102     1.743     1.423 -38.38
        28     284.7437     49.18245  21.9186   0.1876  6.46    495.9820     90.6747     0.749     0.659  -2.31
        29     579.8691     74.09824  21.1465   0.1388  5.12    453.5879     96.8231     1.647     1.056  -1.99
        30     152.5197     32.19747  22.5965   0.2293  6.92   1075.6849     94.6633     0.571     0.337 -46.02
        31     125.1852     29.71692  22.8109   0.2578  4.63    864.3951    107.2189     0.764     0.438  69.69
        32     157.0369      40.1573  22.5648   0.2777  5.47     67.0152    116.1657     0.956     0.468 -37.07
        33     158.5779      40.1573  22.5542   0.2750  5.68    415.9769    114.5088     0.785     0.500  -1.48
        34     129.3289     32.19747  22.7755   0.2704  5.45    154.0176    117.2253     0.680     0.418  -0.79
        35     278513.1     83.36411  14.4427   0.0003  3.50    318.1504    192.6793     2.258     2.100 -35.77
        36     36152.73     69.27792  16.6594   0.0021  3.50   1468.3263    160.8442     1.817     1.772  32.56
        37     300.2009     52.94212  21.8613   0.1915  6.94    418.0578    130.3049     0.737     0.671  11.62
        38     158.9691     41.10231  22.5515   0.2808  7.48    885.4984    128.5032     0.511     0.489 -44.99
        39      43791.3     242.6904  16.4513   0.0060  3.99    403.7292    233.9326     6.189     4.943 -45.90
        40      209.677     41.10231  22.2509   0.2129  5.80    353.8374    145.8660     0.758     0.568  45.43
        41     8441.844     65.28319  18.2387   0.0084  3.50    877.3600    169.0738     1.811     1.626  -0.21
        42     613.4713     57.79623  21.0853   0.1023  4.75   1445.8378    163.4660     1.138     1.080 -23.66
        43     1391.812     83.82343  20.1958   0.0654  5.14    325.4989    170.6974     1.576     1.409   6.39
        44     562.8336     57.79623  21.1788   0.1115  4.76    104.6417    165.8175     1.220     0.975 -54.54
        45     139.6981     25.54844  22.6918   0.1986  3.50   1369.1718    167.7950     0.744     0.561 -42.16
        46     528.4033     79.35271  21.2474   0.1631  7.61    575.4573    178.5435     1.052     0.847  44.31
        47     382.5141     50.59229  21.5982   0.1436  6.94   1354.6979    185.9523     1.294     0.938 -52.81
        48     1098.164     75.12743  20.4531   0.0743  5.21   1350.5454    191.0763     1.353     1.260 -13.49
        49     4917.457     147.2869  18.8254   0.0325  4.94    827.9134    209.4249     3.727     1.958  -4.21
        50     1607.352     56.45195  20.0395   0.0381  3.68    549.2784    205.5385     1.463     1.317   9.24
        51     193.1285     38.19721  22.3402   0.2148  7.89    267.3212    194.3135     0.563     0.340 -44.60
        52     849.0942      60.3951  20.7324   0.0772  3.93    349.9734    207.8263     1.598     1.246  26.86
        53     1613.578     55.42234  20.0353   0.0373  3.64   1306.1472    210.7312     1.424     1.333  14.08
        54     4470.749     167.6469  18.9288   0.0407  4.96    562.1378    228.9519     3.267     2.880  -2.68
        55     261.8525     46.78184  22.0096   0.1940  5.51    250.6948    202.2209     0.900     0.662  19.01
        56     533.9904      70.9211  21.2359   0.1442  6.42    684.6512    209.4440     1.070     0.953  51.31
        57     1893.685     52.94212  19.8615   0.0304  3.50   1226.1467    222.4275     1.444     1.306  26.90
        58     679.2919     55.76765  20.9746   0.0892  4.29    774.8510    221.1967     1.228     1.136   3.07
        59     120201.3     76.14271  15.3550   0.0007  3.50    997.4428    258.4975     2.053     1.906   8.11
        60     655.1876      70.9211  21.0139   0.1176  5.01    345.9449    221.7230     1.363     1.228  26.84
        61     82542.18     75.38253  15.7631   0.0010  3.50     67.5865    265.1008     2.031     1.879  -2.07
        62     322.6312     62.27311  21.7830   0.2096  6.91    548.3456    228.2284     0.891     0.762  10.53
        63      1329.28     89.36584  20.2457   0.0730  5.02    113.3172    243.4180     1.880     1.407 -81.86
        64     558.6559       56.791  21.1869   0.1104  4.47    838.9177    237.7224     1.282     1.044 -36.64
        65     3607.082     103.3147  19.1619   0.0311  4.47    612.7912    254.3776     2.549     1.747 -27.80
        66     116.9178     30.35607  22.8851   0.2820  5.78   1479.5089    238.9854     0.806     0.310 -58.19
        67     223.0266     46.36966  22.1839   0.2258  8.68    211.9850    236.4917     0.785     0.318  32.53
        68     582.5846     73.31686  21.1414   0.1367  5.63   1372.9886    250.5946     1.452     0.974  82.89
        69     285.6122     39.18951  21.9153   0.1490  3.50   1352.6121    251.9105     1.263     0.828  63.62
        70     178.8199     44.68292  22.4237   0.2714  8.20   1414.5033    246.5130     0.500     0.500 -14.22
        71     467.9304      67.3102  21.3793   0.1562  6.75    107.1974    249.7955     1.090     0.760   0.96
        72     340530.4     81.02852  14.2244   0.0003  3.50    439.4229    311.3768     2.197     2.011 -11.23
        73     19163.92     64.98846  17.3486   0.0037  3.50   1486.4139    286.0472     1.721     1.687  20.36
        74     413.6603     62.58063  21.5132   0.1643  5.21   1273.5546    269.0456     1.127     1.072 -82.61
        75     4218.448     58.12744  18.9919   0.0150  3.50   1522.3615    280.2949     1.530     1.486 -76.25
        76     114.9498     26.28912  22.9035   0.2484  5.23    124.9794    264.6647     0.933     0.206 -27.82
        77     95.14685     32.19747  23.1088   0.3675  6.40    498.6624    266.6922     0.568     0.338 -43.54
        78     1690.795     77.14463  19.9846   0.0496  4.20    514.9908    288.7805     1.756     1.589 -14.61
        79     56538.66     73.57825  16.1739   0.0014  3.50    905.4695    317.4287     1.963     1.845   6.52
        80     13861.84     65.28319  17.7002   0.0051  3.50    201.7938    302.2776     1.793     1.624   5.00
        81     1824.766     54.72517  19.9018   0.0326  3.60   1327.4825    292.5781     1.402     1.337 -87.06
        82     964.2258     99.52901  20.5943   0.1121  5.47   1413.6121    296.1295     2.195     1.240 -41.93
        83     687.5172     71.19128  20.9616   0.1125  5.55   1475.8376    291.9290     1.237     1.093  39.84
        84     290038.9     79.59428  14.3986   0.0003  3.50   1345.8704    350.0038     2.086     2.025 -19.86
        85     241.7073     52.57825  22.0966   0.2362  7.27    248.8008    291.1805     0.774     0.562 -43.98
        86     301774.8     80.79125  14.3556   0.0003  3.50    890.8081    350.2067     2.179     2.020  -6.41
        87     638.3452     61.34129  21.0421   0.1044  4.52    563.6510    301.0902     1.452     1.072  -1.22
        88     9485.509     64.39494  18.1121   0.0074  3.50    697.3223    320.8659     1.781     1.588   8.30
        89     652.7054     102.0057  21.0180   0.1697  7.00     85.1877    307.6422     1.381     1.280  78.06
        90     790.8848     93.35827  20.8095   0.1282  5.00    641.2813    321.3483     2.141     1.350 -73.63
        91     137.1034     32.19747  22.7122   0.2550  6.88    985.3195    308.6666     0.571     0.337  45.65
        92     1999.146      100.106  19.8027   0.0544  5.26    595.5634    326.4825     1.814     1.652 -29.83
        93     6363.469     69.27792  18.5455   0.0118  3.57    867.2098    345.2463     1.943     1.597  28.37
        94     365.5731      40.1573  21.6473   0.1193  3.50   1546.4867    327.5649     1.222     0.869 -35.62
        95     230.2668     42.92996  22.1492   0.2025  8.77    955.6740    323.3325     0.574     0.335  45.29
        96     452.1748     42.92996  21.4165   0.1031  3.50     93.1862    331.3411     1.261     0.963   8.23
        97     415.1925     66.73734  21.5092   0.1746  6.43   1440.4208    333.3611     1.109     0.793 -34.47
        98     78.97998     15.17803  23.3110   0.2087  3.50   1065.7026    330.6610     0.564     0.340 -47.15
        99     5211.833     75.89017  18.7623   0.0158  3.68    431.8577    354.7003     1.904     1.842  13.96
       100       168.87     43.81521  22.4859   0.2818  7.70    806.4822    338.0227     0.798     0.313 -57.94
       101     897.9579     72.79129  20.6716   0.0880  5.33     54.6703    349.2087     1.385     1.116   4.47
       102     9700.637     65.28319  18.0878   0.0073  3.50    761.0951    366.9506     1.772     1.586  -6.58
       103      1778.39     55.07486  19.9297   0.0336  3.50   1500.3344    359.5818     1.473     1.391 -71.04
       104     186.1956     44.68292  22.3799   0.2606  5.80     41.9935    347.7420     0.720     0.674  -4.03
       105     3652.609     62.27311  19.1483   0.0185  3.73    442.8058    366.3561     1.602     1.454   4.60
       106     447.4893     44.25119  21.4278   0.1074  3.50   1034.1500    359.3577     1.323     1.001 -21.18
       107      173.005     40.63255  22.4596   0.2551  6.41   1398.6235    354.7786     0.737     0.450  72.11
       108     261.8021     43.37484  22.0098   0.1799  4.42    532.9302    358.7258     1.019     0.746  76.30
       109        47839     72.52707  16.3553   0.0016  3.50    231.4159    394.2700     1.962     1.804  -4.06
       110     292.7111     54.37324  21.8887   0.2017  6.27   1415.1569    362.2943     0.933     0.670 -72.09
       111     646.6682      81.2651  21.0281   0.1365  6.14    754.2100    374.6461     2.046     0.724  44.39
       112     438.2311     63.19119  21.4505   0.1566  5.37   1084.1969    372.1427     1.314     0.879 -23.39
       113     159.5457     39.67636  22.5476   0.2701  6.26    210.5549    367.7691     0.759     0.445  68.93
       114     440.2574     48.39548  21.4455   0.1194  3.98    992.3721    371.5146     1.245     0.959  -4.57
       115     349.6959     61.02752  21.6956   0.1895  7.55     71.1674    368.8334     0.828     0.663  42.45
       116     175.7637     31.59559  22.4425   0.1952  4.40     87.1614    374.6644     1.078     0.409  13.72
       117     335.1373     55.42234  21.7417   0.1796  7.17    126.0072    379.0144     0.891     0.532 -44.75
       118     283.4891     40.63255  21.9234   0.1557  7.92      1.3709    380.1916     0.742     0.451  72.90
       119     6327.511     58.45678  18.5517   0.0100  3.50   1461.0891    395.5740     1.559     1.486  29.89
       120     7605.775     62.88665  18.3519   0.0090  3.50    354.5716    397.1368     1.748     1.526  -6.81
       121     1576.045     52.94212  20.0609   0.0365  3.61   1088.7413    392.3617     1.436     1.278  -2.02
       122     43546.66     71.46044  16.4574   0.0018  3.50    433.3101    418.5695     1.959     1.787   7.46
       123     20994.75      67.3102  17.2495   0.0035  3.50    837.4326    414.4074     1.842     1.679  17.19
       124     904.1604     103.8707  20.6642   0.1248  7.17    627.1854    396.1248     1.977     0.878  61.98
       125     268.5321     51.84285  21.9823   0.2097  7.23   1195.8057    387.8064     0.750     0.561  48.48
       126     373.0857     42.48042  21.6253   0.1237  3.50    977.5923    395.1255     1.235     0.985  76.25
       127     536.4603     77.14463  21.2309   0.1562  6.22    527.0042    401.9259     1.332     0.945  43.86
       128     258.0996     43.81521  22.0253   0.1844  6.26      1.3831    409.7713     1.567     0.375  78.27
       129     943.3199     88.28519  20.6181   0.1016  4.87    159.2099    420.2654     1.807     1.526  48.92
       130     116.5297     21.46498  22.8887   0.2000  3.72    282.5084    406.4822     0.508     0.492  44.57
       131     136117.4     76.14271  15.2200   0.0006  3.50    807.5850    459.8504     2.069     1.899   4.53
       132      3633.46     58.45678  19.1540   0.0175  3.50    926.3993    422.7900     1.637     1.440  15.32
       133     15360.99     66.73734  17.5887   0.0047  3.50    251.9980    437.0163     1.841     1.648  10.22
       134     807.6401     106.0654  20.7867   0.1426  6.94    135.1587    420.5904     1.978     0.991  11.87
       135     1259.977     55.07486  20.3039   0.0475  3.83   1421.9464    431.5284     1.412     1.251  63.69
       136     147.3162     35.05217  22.6342   0.2584  6.81   1580.4958    418.4487     0.505     0.492 -39.12
       137     322.1772     47.99715  21.7845   0.1618  8.80    774.9987    418.5029     0.801     0.312 -31.96
       138     367.4962     55.76765  21.6416   0.1648  5.29   1178.8044    425.3546     1.015     0.913  39.01
       139      502.964     67.59481  21.3009   0.1460  5.34    151.4437    433.0443     1.320     0.996   9.94
       140      193.552     48.79055  22.3378   0.2738  7.10    299.9872    425.5018     0.780     0.500   1.75
       141     198.9874      47.5955  22.3077   0.2598  8.64   1063.9739    423.0000     0.846     0.289   0.00
       142     7853.761     198.6719  18.3171   0.0275  4.79    850.5317    466.5239     7.483     1.917  22.22
       143     4809.342     61.34129  18.8496   0.0139  3.50     21.2809    449.5338     1.697     1.494   8.03
       144     294.6029     53.66245  21.8817   0.1978  8.48    720.1899    430.3995     0.757     0.446  19.42
       145      522.545     48.39548  21.2595   0.1006  3.83    305.9849    438.8527     1.359     0.978   1.90
       146     127.7274     29.71692  22.7891   0.2527  5.22    405.9717    431.7938     0.703     0.404  -1.01
       147     871.3309     77.14463  20.7043   0.0962  5.11    122.2891    444.4103     1.510     1.262  -4.61
       148     727.4508     55.07486  20.9003   0.0822  3.50    884.0020    446.2090     1.746     1.188   0.27
       149     5415.762     62.58063  18.7206   0.0125  3.50     34.5201    457.0356     1.689     1.526  -4.32
       150     273.1968     51.47121  21.9636   0.2046  6.16    655.0332    442.9377     0.791     0.785 -82.53
       151     257.0295     48.39548  22.0298   0.2045  8.01    174.9936    442.2404     0.691     0.427   0.30
       152     336.1641     51.47121  21.7384   0.1663  5.22   1533.1263    451.2191     1.155     0.715  78.27
       153       167.58     42.92996  22.4942   0.2782  7.12   1224.2380    452.1957     0.870     0.343  71.61
       154     1698.865     64.69238  19.9794   0.0414  4.27    468.6153    462.6931     1.524     1.259  11.59
       155     561.9293     45.95378  21.1806   0.0888  3.50   1096.2539    459.7192     1.317     1.075  13.04
       156     484.5128      60.3951  21.3415   0.1354  5.09    724.7584    460.2853     1.301     0.898 -40.63
       157     2133.762     52.94212  19.7319   0.0269  3.50    734.9095    470.8533     1.505     1.270  28.83
       158     1548.491     64.09612  20.0800   0.0450  4.16    254.2337    470.3935     1.561     1.282   8.56
       159     2734.422     56.11084  19.4626   0.0223  3.50    923.0995    476.6703     1.543     1.358  19.37
       160     177.3383     29.71692  22.4328   0.1820  3.50   1132.7686    470.0435     1.272     0.474  69.41
       161     975.0861      67.3102  20.5822   0.0750  4.82   1276.8671    476.7152     1.364     1.171 -18.70
       162     250.9514     51.84285  22.0558   0.2244  5.32   1168.8453    474.4258     1.064     0.731  48.21
       163     631.9685     72.26189  21.0530   0.1242  4.70    839.7307    487.9083     2.284     0.863 -83.34
       164      20643.1     187.1273  17.2678   0.0098  4.28    518.7302    531.8464     4.283     3.686  14.63
       165     2368.292     119.3512  19.6187   0.0547  4.33   1186.7635    494.4384     2.990     2.116 -29.96
       166     1166.486     59.75597  20.3876   0.0556  4.18   1070.7542    482.6162     1.421     1.210  25.27
       167     342.7653     64.39494  21.7173   0.2040  6.34   1309.4797    479.6473     1.070     0.795  56.30
       168     2493.466      122.526  19.5628   0.0534  5.21     83.0719    495.2841     2.303     1.986  35.55
       169     249.1158     49.57125  22.0638   0.2161  5.69    682.3663    477.8947     0.918     0.682  20.87
