#   1 KRON_RADIUS            Kron apertures in units of A or B                         
#   2 Y_IMAGE                Object position along y                                    [pixel]
#   3 MAG_BEST               Best of MAG_AUTO and MAG_ISOCOR                            [mag]
#   4 FLUX_BEST              Best of FLUX_AUTO and FLUX_ISOCOR                          [count]
#   5 X_IMAGE                Object position along x                                    [pixel]
#   6 THETA_IMAGE            Position angle (CCW/x)                                     [deg]
#   7 A_IMAGE                Profile RMS along major axis                               [pixel]
#   8 B_IMAGE                Profile RMS along minor axis                               [pixel]
#   9 MAGERR_BEST            RMS error for MAG_BEST                                     [mag]
#  10 NUMBER                 Running object number                                     
#  11 FLUXERR_BEST           RMS error for BEST flux                                    [count]
 3.50    183.5872  13.0958       958712   1107.5574 -24.92     5.235     4.880   0.0002          1     171.5191
 4.07     54.7853  16.4430      43933.5     63.6141  10.86     5.365     4.865   0.0050          2     202.1742
 4.05     18.2255  18.6096     5972.606    984.9714 -89.63     4.233     2.082   0.0213          3     116.9392
 4.10     19.4714  19.1069     3777.646     91.2174 -50.22     1.811     1.786   0.0205          4     71.40068
 3.50     16.2575  18.0599     9909.256   1445.6405  10.92     2.069     1.951   0.0075          5     68.39749
 5.88      5.8206  21.8107     313.1227    145.2244  -0.38     1.171     0.700   0.1782          6     51.37114
 3.50     61.4053  16.3865     46280.12   1078.3888  59.86     2.432     2.332   0.0019          7     80.29659
 7.12     11.4046  22.7314     134.1003   1183.2153  19.10     0.760     0.448   0.3198          8     39.48931
 5.38     19.2027  21.5034     415.5513    384.3959  18.99     1.234     0.891   0.1431          9     54.76182
 6.15     26.2155  20.4852     1061.489    366.8643  22.58     1.520     1.276   0.0850         10     83.05042
 8.12     25.4832  21.2773     511.7942    382.6800  34.63     1.089     0.824   0.1576         11     74.28255
 6.45     36.5190  21.2790     510.9773   1110.6578 -49.38     1.297     0.966   0.1486         12     69.91521
 6.19     34.8941  21.0045     657.9388    326.7798  -6.17     1.759     1.173   0.1423         13       86.239
 3.50     81.5319  16.4209     44838.84    537.4344 -10.68     2.423     2.339   0.0019         14     80.29659
 6.57     40.7102  22.0909     241.9064   1170.5585  40.85     1.270     0.507   0.2306         15     51.37114
 5.84     40.0144  22.3059      198.442   1521.2733  85.98     0.741     0.661   0.2243         16     40.97999
 5.96     44.3193  21.8114      312.933    915.1636 -57.46     1.037     0.830   0.1881         17     54.21144
 8.83     45.6943  21.9891     265.6788    440.3448  43.15     0.570     0.337   0.1551         18      37.9401
 3.86     76.6940  20.0305     1613.629    128.1458 -36.54     1.719     1.565   0.0414         19     61.46999
 6.41     91.3006  20.0991     1514.785    376.7003  59.94     2.278     1.590   0.0850         20     118.5944
 5.67     84.3876  21.3730     468.6173    421.1942 -71.73     1.543     1.097   0.1650         21     71.19037
 3.50    123.3941  15.9909     66623.95    788.9817   1.93     2.490     2.407   0.0013         22     82.68854
 4.29     98.1544  19.5787     2446.264     56.0174  -2.93     1.876     1.626   0.0321         23      72.2358
 6.17     99.8754  20.8773     739.7351    452.8300  11.31     1.469     1.252   0.1184         24      80.6692
 5.78     92.9686  22.0442     252.5361    495.7601  -1.84     0.890     0.757   0.1970         25     45.81702
 8.06     97.6176  22.0262     256.7535   1075.7946  18.16     0.767     0.445   0.1965         26     46.46695
 7.50    118.7651  21.9457     276.5106    990.2148  56.09     0.770     0.712   0.2140         27     54.48732
 3.50    195.1572  14.4058     286860.5    317.9610 -41.25     2.782     2.657   0.0003         28     92.28626
 3.50    163.8908  16.6167     37439.93   1468.2515 -11.43     2.301     2.243   0.0022         29     76.86188
 8.09    132.3931  22.2790     203.4232    418.1811  19.00     0.751     0.447   0.2463         30     46.14313
 3.64    171.7732  18.2338     8442.417    877.2230 -67.73     2.117     2.046   0.0095         31     73.67449
 4.14    236.5317  16.3641     47245.53    403.5941 -41.84     6.506     5.518   0.0055         32     241.3251
 6.41    148.9917  22.5860     153.3187    353.9936 -89.87     0.620     0.600   0.2602         33     36.73534
 5.04    152.7571  22.7609      130.506   1280.5729  70.56     0.724     0.458   0.2324         34     27.92316
 3.57    167.9652  21.0126     653.0602    104.0227 -78.60     1.477     1.352   0.0820         35     49.28564
 6.30    166.7165  20.4934     1053.485   1445.8739  25.89     1.482     1.386   0.0909         36     88.13081
 5.49    173.1771  20.1650     1425.562    325.4615  16.30     1.587     1.503   0.0631         37     82.86967
 6.55    161.5322  22.8932     115.5385    634.5322  45.00     0.509     0.489   0.2912         38     30.97796
 6.45    170.4766  21.6238      371.952   1368.4978   1.76     0.962     0.894   0.1722         39     58.98029
 6.49    170.4273  22.6549     143.8945    651.2307  19.56     0.769     0.448   0.2710         40     35.90973
 7.88    181.2506  21.0669     621.1864    575.0485  33.93     1.588     0.819   0.1520         41     86.93169
 5.32    194.2067  20.4401     1106.571   1350.5676 -61.81     1.471     1.371   0.0715         42     72.85587
 6.62    188.1914  21.3720     469.0336   1354.9641  38.79     1.032     0.844   0.1401         43     60.48641
 4.60    212.4507  18.7884     5065.552    827.3505 -12.74     4.311     2.212   0.0296         44     138.2126
 4.85    208.1533  19.8062     1983.844    548.9967 -56.60     1.728     1.561   0.0420         45     76.66655
 5.72    196.9942  22.8246      123.072    268.7589 -89.70     0.669     0.428   0.2602         46     29.49014
 4.64    210.1383  20.6383     921.8735    349.6559  53.37     1.790     1.474   0.0861         47     73.06138
 3.50    213.7668  20.0072     1648.584   1306.0121  -5.52     1.673     1.542   0.0357         48     54.21144
 5.57    231.9906  18.7830     5090.757    561.9375 -29.90     3.530     3.154   0.0385         49     180.3818
 3.50    267.4318  15.7213      85405.7     67.5887   4.04     2.519     2.455   0.0011         50      85.1894
 6.26    205.3241  21.9198     283.1819    250.8450  36.23     1.499     0.627   0.2262         51     58.98029
 5.22    212.3623  20.9894     667.1906    684.2392 -21.56     1.589     1.414   0.1242         52     76.27439
 3.50    261.3211  15.3349     121913.6    997.3770  -5.15     2.487     2.473   0.0008         53     84.30475
 3.62    225.6275  19.8771     1858.562   1226.0276  56.38     1.638     1.513   0.0325         54     55.57718
 8.63    224.0614  19.7147     2158.247   1122.9299  71.23     1.885     1.218   0.0638         55     126.7828
 5.20    223.4958  20.8715     743.6832    345.2687  38.99     1.862     1.400   0.1192         56     81.59328
 4.84    224.2253  20.8351     769.0786    774.7049 -64.77     1.485     1.274   0.0912         57     64.56323
 5.40    245.7517  20.0243     1622.848    112.9577 -84.19     2.269     1.821   0.0711         58     106.1871
 4.76    256.8083  18.9756     4263.531    612.8062 -31.38     2.763     2.241   0.0293         59     114.9998
 6.68    240.4640  20.7032      868.422    838.1740   3.11     1.587     1.461   0.1236         60     98.87504
 6.57    253.3820  20.8018     792.9875   1372.6572 -77.44     1.676     1.007   0.1142         61     83.41072
 3.50    313.6555  14.1847     351672.1    439.4230 -29.46     2.726     2.645   0.0003         62     91.14183
 7.15    251.7136  21.5663     392.1851    107.6562 -47.45     1.286     0.961   0.1384         63     49.99508
 7.46    254.2400  22.1687     225.1644   1352.0001  52.98     0.825     0.505   0.2272         64      47.1079
 3.50    289.1064  17.3006     19942.21   1486.3666  -0.24     2.197     2.143   0.0040         65     74.08041
 3.69    283.4656  18.9478     4374.009   1522.2140  34.16     1.863     1.834   0.0167         66     67.06926
 8.03    266.9816  22.2893     201.4993    123.0000  90.00     0.858     0.289   0.2149         67     39.86721
 6.59    272.2896  21.4392     440.8799   1273.7917   3.52     1.215     0.927   0.1685         68     68.39749
 3.50    304.5827  17.6301     14721.33    201.6470   7.61     2.214     2.163   0.0055         69     74.08041
 3.50    352.8533  14.3150     311890.5    890.7000 -41.09     2.708     2.638   0.0003         70     91.14183
 3.50    320.2001  16.1363     58273.14    905.3373  17.94     2.371     2.336   0.0015         71     79.73441
 3.50    291.1290  20.0745     1549.548    515.0054  -4.76     1.867     1.704   0.0426         72      60.7338
 3.50    352.8833  14.3553       300522   1345.7853 -27.88     2.672     2.630   0.0003         73      90.8122
 3.89    295.5385  19.8781     1856.805   1327.5559  16.46     1.682     1.633   0.0361         74     61.71344
 5.59    294.7319  20.6831     884.5861   1475.5228 -32.70     1.490     1.410   0.0640         75     52.15097
 5.89    298.9774  20.2386     1332.194   1413.5488 -31.73     2.281     1.700   0.0914         76     112.0947
 3.50    323.5643  18.0650     9862.407    697.2145  48.90     2.098     2.084   0.0078         77     70.97943
 4.10    303.5893  20.9033     722.2278    563.4363 -14.17     1.634     1.445   0.0921         78     61.22557
 8.31    294.2922  22.3415     192.0378    247.3226 -43.23     0.554     0.344   0.2031         79     35.90973
 5.61    322.5241  20.5394     1009.769    641.3190  77.61     1.952     1.535   0.1017         80     94.53356
 8.04    310.1534  21.4447     438.6527     85.7015 -35.38     1.131     0.517   0.1491         81       60.238
 5.15    328.8730  19.7952     2004.017    595.4161 -35.23     1.940     1.713   0.0496         82     91.47028
 4.20    347.9107  18.4461     6943.085    867.0420  25.16     2.264     2.015   0.0137         83     87.44762
 6.23    331.3643  21.4994     417.1154   1545.8273  52.86     1.283     0.835   0.1626         84     62.43808
 5.89    326.3526  22.3612     188.5988    955.5109   0.07     0.926     0.478   0.2185         85      37.9401
 6.09    333.6950  21.3919     460.5061     93.5791  55.69     0.971     0.940   0.1348         86     57.17302
 5.78    336.5270  21.7132     342.5399   1439.6562 -34.70     1.042     0.821   0.1638         87      51.6622
 3.69    357.2689  18.8224     4909.606    431.7284 -73.63     2.062     1.955   0.0159         88     71.81945
 5.25    351.3244  20.7061     866.0796     54.6837  61.37     1.405     1.282   0.0858         89     68.39749
 3.71    369.6347  18.0450     10045.83    760.9843  22.47     2.101     2.028   0.0080         90     74.08041
 3.50    396.6438  16.3157     49399.87    231.3483 -28.26     2.424     2.344   0.0018         91     80.48311
 4.89    362.7214  19.7919     2010.221   1500.1429   0.84     1.894     1.593   0.0448         92     82.86967
 3.54    368.9449  19.1587     3601.829    442.7167  23.76     1.817     1.730   0.0185         93     61.46999
 6.61    362.1609  21.2311     534.0375   1033.3591 -58.97     1.241     0.996   0.1439         94     70.76787
 5.00    361.2872  22.2597     207.0688    533.3430  -8.77     1.219     0.716   0.2351         95     44.82448
 7.19    364.6555  21.7086       343.99   1415.9182 -70.00     0.961     0.690   0.1805         96     57.17302
 6.32    376.5251  20.9219     709.9421    753.3804  45.42     2.021     1.175   0.1020         97     66.69587
 5.75    375.3518  21.3631     472.9077   1083.9891 -64.08     1.453     1.092   0.1610         98     70.12935
 5.86    381.5696  21.3585      474.899      1.5932 -89.37     2.024     0.637   0.1240         99     54.21144
 6.06    374.2666  20.9660     681.7281    992.6714  16.70     1.283     1.155   0.1137        100     71.40068
 6.92    371.3849  21.6613     359.3328     72.0737  -4.98     1.328     0.618   0.1813        101     59.98857
 7.71    370.4338  22.2961     200.2417    209.7980 -20.40     0.757     0.448   0.2376        102     43.80946
 3.50    399.6199  18.3304     7723.608    354.4694  17.69     2.028     1.927   0.0095        103     67.29245
 3.50    398.5513  18.4579     6868.291   1461.0906  -9.16     1.985     1.894   0.0104        104     65.48561
 5.48    384.9274  21.9067     286.6378     67.2584  84.64     1.574     0.663   0.2043        105     53.93414
 5.96    376.7703  22.8669     118.3723     87.0265   1.14     0.694     0.420   0.2797        106     30.49009
 3.50    421.0826  16.4176     44973.86    433.2188   2.48     2.332     2.293   0.0019        107       78.407
 6.76    382.1244  21.5833     386.0757    125.8206 -25.56     0.976     0.759   0.1623        108     57.69516
 4.03    395.3357  20.0407     1598.557   1088.6277  16.80     1.645     1.542   0.0423        109     62.19747
 3.50    417.0440  17.2148     21582.24    837.3096  10.22     2.185     2.170   0.0037        110     74.28255
 7.52    397.2802  20.8796     738.2087    626.6414 -84.28     1.368     1.024   0.1274        111     86.58604
 5.78    390.9907  22.9780     106.8601   1196.0000  90.00     0.849     0.289   0.2669        112     26.26285
 6.11    413.6238  20.4497     1096.827      1.9529  88.05     2.734     0.909   0.0759        113     76.66655
 4.90    397.7170  22.0433     252.7413    977.6585 -45.77     1.233     0.712   0.1955        114     45.48858
 7.33    405.2974  21.1137     594.9984    526.4940  83.57     1.299     1.026   0.1496        115     81.95998
 3.50    462.6601  15.1784     140815.2    807.5491 -14.20     2.554     2.475   0.0007        116     85.89056
 3.50    425.5665  19.1420      3657.54    926.3489  46.72     1.842     1.791   0.0181        117     60.98018
 3.50    439.4121  17.5403     15991.42    252.0300   6.63     2.198     2.152   0.0050        118     74.08041
 6.39    408.1781  21.7722     324.4181    281.9646  29.19     1.164     0.805   0.1974        119     58.98029
 5.62    403.4152  22.8298     122.4888    943.7681 -19.28     0.745     0.452   0.2831        120     31.93135
 5.73    422.2335  20.5652     986.0686    159.3221  51.63     1.823     1.388   0.0980        121     88.97742
 7.68    426.9838  21.8539     300.9084    299.5127  88.57     1.409     0.499   0.2262        122     62.67777
 7.33    419.4578  21.9377     278.5599   1204.3013  -8.30     1.015     0.481   0.1968        123      50.4879
 7.02    428.1476  21.1429      579.218   1179.8237  43.93     1.268     1.091   0.1506        124     80.29659
 5.03    434.3694  20.2389     1331.782   1421.9890 -10.91     1.563     1.401   0.0589        125      72.2358
 8.46    424.2213  21.7101     343.5237    133.4180  71.45     0.751     0.455   0.1509        126     47.74025
 5.94    421.4902  22.5595     157.1055   1580.9537   2.69     0.778     0.499   0.2511        127     36.32488
 8.25    421.6680  22.1736     224.1688    136.3273  45.21     0.574     0.335   0.1719        128     35.48972
 7.28    425.5192  22.6400     145.8846   1063.4724  46.62     0.503     0.496   0.2704        129     36.32488
 8.39    431.2661  21.3811     465.1128    718.8471  67.24     1.078     0.508   0.1407        130       60.238
 4.91    469.1449  18.2696      8169.15    850.2258  21.77     7.532     2.223   0.0260        131     195.2318
 4.03    451.8586  18.7103     5443.372     21.3153  -0.20     2.088     1.943   0.0156        132       78.407
 5.98    435.1284  20.9923     665.4058    151.0912  52.00     1.240     1.134   0.1127        133     69.05202
 5.34    441.5390  21.0615     624.3286    305.5745 -51.09     1.441     1.138   0.1159        134     66.62063
 5.43    446.8850  20.5948     959.5898    122.1028  85.16     1.505     1.355   0.0850        135     75.08562
 6.19    435.6658  23.2853     80.51379    353.6779 -45.55     0.573     0.336   0.3693        136     27.38091
 3.93    459.3049  18.6649     5676.193     34.4913 -43.25     1.983     1.870   0.0141        137     73.47069
 5.27    448.5699  20.7441      836.313    883.4819   7.79     2.147     1.280   0.1104        138     85.01321
 8.31    445.0175  21.9113     285.4187    654.3727 -25.27     1.075     0.452   0.2125        139     55.84632
 3.72    465.1295  19.9497      1738.22    468.4330  46.31     1.736     1.538   0.0368        140     58.98029
 5.43    454.5111  21.8342     306.4323   1533.5862   2.58     0.992     0.775   0.1600        141     45.15775
 3.81    462.4622  21.1227     590.0736   1096.4277  13.23     1.423     1.022   0.0831        142     45.15775
 6.24    454.6659  23.1932     87.64478   1224.3202  45.64     0.572     0.336   0.3460        143     27.92316
 4.18    473.5637  19.6926     2202.629    734.7418 -32.10     1.675     1.672   0.0337        144     68.39749
 7.76    463.4885  21.6967     347.7919    723.9955 -62.96     1.225     0.497   0.1889        145     60.48641
 4.23    473.0175  20.1005     1512.896    254.3179   2.68     1.614     1.461   0.0457        146     63.62748
 3.50    479.3951  19.4364      2788.92    922.8689  50.12     1.738     1.689   0.0226        147     57.95446
 4.25    479.2148  20.3799     1169.572   1276.8654  88.29     1.668     1.470   0.0602        148     64.79506
 6.15    468.1648  22.5080     164.7476   1198.3262 -25.50     0.748     0.647   0.2749        149     41.70536
 8.21    466.6413  22.9793     106.7286    561.6643 -45.84     0.589     0.326   0.3611        150     35.48972
 4.30    534.3708  17.2207      21464.1    518.4934  33.99     4.541     3.949   0.0090        151     177.0256
 5.41    489.4281  20.8470     760.6414    839.4063 -82.78     2.624     1.021   0.1231        152       86.239
 5.00    497.6219  19.5204     2581.284     82.7204 -14.39     2.586     2.443   0.0514        153     122.0832
 4.50    497.1445  19.6541     2282.215   1186.5588 -19.25     2.872     2.197   0.0523        154     109.9336
 5.27    477.6234  22.0369     254.2489   1167.6362 -32.52     1.409     0.553   0.1929        155     45.15775
 3.50    485.5692  20.3620      1189.07   1070.7618 -13.26     1.528     1.376   0.0453        156     49.58894
 3.50    480.6513  22.5324      161.072    682.8082 -28.81     0.846     0.613   0.1609        157     23.87012
 5.97    483.2269  22.6924     139.0078   1309.2524  17.63     0.842     0.349   0.2382        158     30.49009
 3.50    513.8845  17.8735     11765.21   1302.1998 -12.26     2.242     2.029   0.0067        159      72.2358
 7.02    490.9982  22.6914      139.139    424.4973  57.39     0.783     0.319   0.2635        160     33.75745
 4.94    505.6879  20.3477     1204.784    762.6536  29.68     1.866     1.696   0.0765        161     84.83665
 6.04    499.2488  21.7172     341.2747    366.5008  48.61     1.260     0.822   0.1885        162     59.23397
 3.64    503.5775  21.0667      621.335    863.6854  22.73     1.342     1.232   0.0801        163     45.81702
 4.16    516.8404  19.2737       3239.7   1461.1040  25.63     3.621     1.835   0.0350        164     104.3353
 6.26    502.6222  21.6733     355.3739   1310.3589 -36.68     1.014     0.855   0.1747        165     57.17302
 4.41    514.6971  20.4362     1110.457   1309.9906 -41.48     1.613     1.381   0.0431        166     44.10003
 6.42    511.4173  20.4876     1059.184    164.7969  15.76     2.143     1.304   0.1074        167     104.7655
 3.50    504.0079  22.7861     127.5178    442.7247 -86.64     0.742     0.697   0.2033        168     23.87012
 3.90    515.1553  20.9157     714.0349   1179.1432 -11.56     1.351     1.290   0.0759        169     49.89039
