#   1 KRON_RADIUS            Kron apertures in units of A or B                         
#   2 MAGERR_APER            RMS error vector for fixed aperture mag.                   [mag]
#   3 Y_IMAGE                Object position along y                                    [pixel]
#   4 X_IMAGE                Object position along x                                    [pixel]
#   5 THETA_IMAGE            Position angle (CCW/x)                                     [deg]
#   6 FLUX_APER              Flux vector within fixed circular aperture(s)              [count]
#   7 A_IMAGE                Profile RMS along major axis                               [pixel]
#   8 B_IMAGE                Profile RMS along minor axis                               [pixel]
#   9 FLUXERR_APER           RMS error vector for aperture flux(es)                     [count]
#  10 MAG_APER               Fixed aperture magnitude vector                            [mag]
#  11 NUMBER                 Running object number                                     
 3.91   0.0036     54.8359     63.6206   5.70     36338.92     4.244     3.878     121.4071  16.6491          1
 4.60   0.0222     18.0924    984.9158 -87.37     5929.032     3.614     1.863     121.3378  18.6175          2
 3.50   0.0427     19.5113     91.2549 -72.22      3083.39     1.594     1.593     121.3477  19.3274          3
 3.50   0.0128     16.2649   1445.6256   8.14     10336.97     1.900     1.836     121.3626  18.0140          4
 5.90   0.0885     26.1766    366.7931  41.30     1490.073     1.199     1.039     121.3725  20.1170          5
 3.50   0.0027     61.3922   1078.4001  53.38     48006.35     2.304     2.210     121.3922  16.3468          6
 8.15   0.2496     36.6805   1110.6476 -43.63     528.0676     0.579     0.332     121.3527  21.2433          7
 3.50   0.0028     81.5646    537.4186  -5.67     46550.45     2.265     2.196      121.412  16.3802          8
 4.29   0.1302     76.6530    128.1523  62.75     1012.392     1.363     1.274     121.3527  20.5366          9
 7.32   0.0871     91.8835    376.7336  47.53     1513.936     1.522     1.014     121.3626  20.0997         10
 3.50   0.0019    123.3811    789.0018  18.27     68757.84     2.331     2.287     121.3922  15.9567         11
 3.80   0.0772     98.2123     56.0647   7.64     1707.073     1.502     1.390     121.3873  19.9694         12
 8.42   0.1383     99.7136    453.1160  29.05     952.7007     0.877     0.602     121.3576  20.6026         13
 3.50   0.0034    163.8837   1468.2428  -1.35     38685.88     2.178     2.142     121.3428  16.5811         14
 3.89   0.0144    171.8251    877.2281 -60.67     9134.208     1.874     1.862     121.4219  18.1483         15
 6.38   0.1115    166.6909   1445.6654 -44.42     1182.003     1.193     0.978     121.3675  20.3685         16
 7.04   0.9795    168.0562    104.0515  43.30     134.5367     0.802     0.763     121.3378  22.7279         17
 6.01   0.0926    194.2116   1350.6384  35.21     1423.855     1.178     1.115     121.4071  20.1663         18
 5.50   0.0279    212.3613    827.3483 -10.23     4723.466     3.322     1.857     121.3774  18.8643         19
 5.10   0.0571    208.2482    549.0332  41.51     2307.561     1.470     1.426     121.3675  19.6421         20
 3.74   0.0875    213.8068   1306.0281  -6.24      1505.55     1.480     1.352     121.3725  20.1058         21
 8.05   0.1468    212.7351    684.5651 -81.02      897.827     1.006     0.476     121.3626  20.6670         22
 6.28   0.0295    232.0212    561.7152 -32.67     4460.019     2.663     2.414     121.3181  18.9267         23
 3.50   0.0011    261.3156    997.3729 -30.47     125292.1     2.408     2.379     121.3378  15.3052         24
 3.79   0.0694    225.7272   1225.9865  40.87     1899.704     1.501     1.369     121.3527  19.8533         25
 5.84   0.1759    224.1498    774.5750 -67.76     749.6035     1.062     0.975     121.3922  20.8629         26
 3.50   0.0015    267.4340     67.6003  -3.52     87816.71     2.406     2.326     121.3922  15.6911         27
 6.66   0.0765    245.6855    113.1610  55.09     1722.074     1.408     1.359      121.328  19.9599         28
 5.49   0.0306    256.8878    612.8890 -21.14     4308.908     2.138     1.826     121.3527  18.9641         29
 7.21   0.1903    253.0288   1372.7051 -83.06     692.0916     0.748     0.667     121.3032  20.9496         30
 3.50   0.0063    289.0899   1486.3671   5.85     20839.68     2.042     1.994     121.3131  17.2528         31
 8.67   0.1885    272.3262   1273.6752  45.06     699.2737     0.571     0.337     121.3527  20.9384         32
 3.96   0.0285    283.4577   1522.1886  -9.24     4630.535     1.709     1.611     121.3972  18.8859         33
 3.66   0.0084    304.6035    201.7187  22.84     15697.58     2.002     1.971     121.3428  17.5604         34
 6.34   0.0820    294.8393   1475.4043 -83.91     1608.275     1.174     1.086     121.3873  20.0341         35
 6.99   0.1241    303.8516    563.3071  -6.02     1062.117     1.188     0.868     121.3428  20.4846         36
 3.67   0.0126    323.5391    697.1888   0.01     10438.22     1.954     1.903     121.3823  18.0034         37
 5.66   0.0581    328.9860    595.2855 -32.56     2267.331     1.686     1.502     121.3032  19.6612         38
 8.71   0.1302    322.4551    641.3331  83.50     1011.808     1.047     0.653     121.3378  20.5373         39
 6.42   0.1908    333.7484     93.6034  72.11     690.9966     0.729     0.457     121.3823  20.9513         40
 6.34   0.0969    351.4026     54.7957  49.73     1361.322     1.177     1.075     121.4071  20.2151         41
 4.09   0.0118    369.6225    761.0285  30.29     11181.66     1.926     1.859      121.412  17.9287         42
 5.27   0.0623    362.6790   1500.2339  23.19     2115.278     1.478     1.287      121.323  19.7366         43
 7.48   0.1579    361.9877   1033.6975  89.10     834.0369     0.748     0.672     121.2983  20.7470         44
 3.50   0.0026    396.6410    231.3549  -3.97     51271.42     2.269     2.209     121.3675  16.2753         45
 6.46   0.0962    381.5793      1.2468 -89.44     1004.869     1.458     0.431     89.03194  20.5447         46
 3.61   0.0185    398.5565   1461.1088   6.19     7139.234     1.824     1.753     121.3477  18.4159         47
 3.51   0.0162    399.5740    354.4665  11.07     8150.723     1.857     1.811     121.3626  18.2720         48
 4.40   0.0844    395.4062   1088.5165 -42.13     1561.198     1.368     1.351     121.3329  20.0664         49
 6.87   0.0743    414.2457      1.5116  89.08     1316.715     2.051     0.605     90.14379  20.2513         50
 3.54   0.0078    439.4572    252.0079  15.30     16945.85     2.046     1.982     121.3873  17.4773         51
 3.50   0.0009    462.6494    807.5643  -2.72     144164.5     2.413     2.373     121.3725  15.1529         52
 6.55   0.1186    422.0020    159.4453  47.83      1111.34     1.249     1.043     121.3873  20.4354         53
 8.19   0.0785    428.0000    432.9590   0.00     1679.787     1.914     0.289     121.3922  19.9869         54
 5.28   0.0984    434.3916   1421.9470  67.39     1339.866     1.278     1.212     121.3823  20.2323         55
 7.28   0.1227    435.2090    151.0122  87.99     1074.371     0.921     0.757     121.3922  20.4721         56
 4.30   0.0226    451.8022     21.2892 -13.17     5824.241     1.783     1.688      121.328  18.6369         57
 5.24   0.1639    441.5106    305.5054 -47.55     804.1627     1.097     0.860     121.3527  20.7866         58
 7.08   0.1106    446.8086    121.9766  76.56     1192.042     1.265     0.850     121.3774  20.3593         59
 5.53   0.0210    469.2504    850.3843  22.30     6281.579     6.051     1.798     121.3774  18.5548         60
 4.27   0.0209    459.3000     34.4887 -38.30     6294.711     1.786     1.703     121.3082  18.5526         61
 3.68   0.0737    465.2224    468.3899  58.66     1788.504     1.531     1.345     121.3823  19.9188         62
 6.18   0.2684    462.5251   1096.4546  -0.34     490.9801     0.950     0.878     121.3428  21.3223         63
 4.16   0.0539    473.5137    734.7785 -37.31     2443.493     1.491     1.486     121.3181  19.5800         64
 4.54   0.0717    473.0667    254.3101  10.96     1838.728     1.411     1.312     121.3675  19.8887         65
 4.13   0.0448    479.3898    922.8976 -76.62     2941.492     1.551     1.504     121.3032  19.3786         66
 5.48   0.1257    479.4025   1276.8832  78.52     1048.269     1.291     1.156     121.3428  20.4988         67
 3.89   0.1354    485.5703   1070.7393  13.09     973.3215     1.312     1.293     121.3626  20.5794         68
 6.37   0.0492    497.7063     82.9283  76.10     2676.577     2.034     1.669     121.3576  19.4811         69
 6.37   0.0593    496.9576   1186.8683  -0.60     2221.917     2.001     1.447     121.3527  19.6832         70
 4.68   0.0077    532.7955    518.6533  17.40      17053.5     3.820     2.359     121.3675  17.4705         71
 6.67   0.0959    505.7798    762.3797  56.45     1374.117     1.292     1.175     121.4021  20.2049         72
 5.69   0.2471    503.5764    863.4998  42.04     533.1734     1.090     0.853     121.3032  21.2328         73
 5.06   0.0431    516.7531   1460.9519  28.97     3061.381     3.097     1.405     121.3576  19.3352         74
 8.00   0.1247    511.2891    165.8905  69.19     1056.736     0.940     0.687     121.3477  20.4901         75
 5.20   0.1789    515.2175   1179.0568 -58.73     736.9784     1.165     1.046     121.3774  20.8814         76
 7.14   0.3308    520.9695    641.9778 -18.30     398.6024     0.804     0.793      121.412  21.5486         77
 3.91   0.0732    541.6566    999.7239  27.26     1801.117     1.340     1.316     121.3527  19.9111         78
 4.27   0.0569    560.4131   1041.6547  46.34     2316.299     1.556     1.405     121.3873  19.6380         79
 3.60   0.0131    582.1475    144.8843  -5.49     10029.24     1.965     1.861     121.3428  18.0468         80
 5.63   0.0903    573.0700   1447.9109  42.99     1459.765     1.706     1.423     121.3576  20.1393         81
 5.53   0.0695    572.8860     46.0232  46.67     1895.736     1.753     1.387      121.328  19.8556         82
 8.05   0.2078    566.0245    139.4997 -89.45     633.9724     0.796     0.500     121.3082  21.0448         83
 3.75   0.0128    583.7054    319.1115  11.87     10270.94     1.980     1.883     121.3477  18.0210         84
 5.07   0.0212    598.1216    782.4658 -42.25     6208.794     2.977     2.563     121.3576  18.5675         85
 5.69   0.1833    585.9943     75.7904   1.38     719.1139     1.094     0.961     121.4071  20.9080         86
 4.52   0.1160   1002.7000   1555.2938 -65.03     1135.487     1.321     1.199     121.3181  20.4120         87
 6.49   0.1654   1598.5640    654.0644  -8.13     616.1824     1.221     0.893     93.86779  21.0757         88
 7.08   0.3351   1596.1770    374.0028  36.31     332.6875     0.939     0.470     102.6436  21.7449         89
 3.95   0.0058   1553.8917    681.8878 -25.88     22835.02     4.246     3.738     121.3477  17.1535         90
 6.30   0.1134   1547.4857    863.5578  50.58       1162.2     1.619     0.904     121.3378  20.3868         91
 4.90   0.0518   1543.9369    654.2358   6.50     2542.484     1.519     1.499     121.3675  19.5369         92
 4.10   0.0385   1543.1434    134.8184  -2.18     3423.689     1.722     1.668     121.3774  19.2138         93
 3.50   0.0044    986.2239    558.3918   9.39     29934.42     2.222     2.152     121.3774  16.8596         94
 7.19   0.0617    987.8929    454.0612  47.40     2135.891     1.354     1.220     121.3477  19.7261         95
 6.27   0.1532    982.2548    798.0513 -14.06     860.4026     1.182     1.147     121.3477  20.7132         96
 8.11   0.2105    966.4951    416.5008 -44.59     625.9692     0.501     0.499      121.328  21.0586         97
 8.05   0.1937    951.7571    654.6135 -60.71     680.6575     0.891     0.871     121.4169  20.9677         98
 7.48   0.2162    948.8289    444.8362  48.67     609.6872     0.765     0.571     121.4021  21.0872         99
 4.50   0.0760    940.5356   1066.9823  40.85     1733.142     1.443     1.317     121.3527  19.9529        100
 4.58   0.1344    929.8412   1322.2853  -2.33     980.8041     1.216     1.156     121.3378  20.5710        101
 4.42   0.0979    923.3920    806.9277  50.58      1345.65     1.425     1.318     121.3626  20.2277        102
 5.90   0.1950    914.0108    838.2870  48.92     675.7169     1.221     0.954     121.3032  20.9756        103
 6.84   0.5564    913.8267   1001.1534 -42.74      236.914     0.755     0.572     121.3774  22.1135        104
 3.85   0.0199    901.8207    302.6184  22.20      6617.86     1.873     1.752     121.3972  18.4982        105
 6.87   0.0772    897.2894    538.1764  59.92     1707.142     1.438     1.205     121.3181  19.9693        106
 3.50   0.0011    881.6221   1592.4481  67.55     115531.5     2.409     2.363     113.8575  15.3932        107
 7.87   0.1047    889.9263    325.6593  13.95     1258.558     1.040     0.756     121.3576  20.3003        108
 3.95   0.3223    887.2353   1500.0454 -21.96     408.9733     1.146     1.024     121.3774  21.5208        109
 6.69   6.1940    878.9768    960.7203  84.12     21.27333     0.742     0.686     121.3329  24.7304        110
 4.50   0.0513    870.7982   1103.3259 -37.23     2570.136     1.808     1.697     121.3626  19.5251        111
 7.19   0.1787    869.4719    939.9760  27.11      737.361     1.262     0.879     121.3626  20.8808        112
 6.53   0.2044    859.9742   1339.4485 -27.10     645.0328     1.052     0.652     121.3922  21.0260        113
 5.11   0.1455    844.6675   1106.2814  40.45       905.52     1.387     1.144     121.3527  20.6578        114
 6.58   0.3439    846.0511   1063.9689  55.92      383.281     0.799     0.781     121.3725  21.5912        115
 4.25   0.1008    838.0631    298.7592  11.70     1308.078     1.429     1.284     121.3527  20.2584        116
 3.97   0.0192    824.3925    654.3007  39.36     6853.905     1.941     1.782     121.3131  18.4602        117
 3.50   0.0229    804.4160   1378.5784  37.19      5760.17     1.805     1.756     121.4021  18.6489        118
 3.52   0.0074    799.9092    695.5862  88.53     17721.65     2.612     2.031     121.3082  17.4287        119
 4.28   0.0464    802.0178     41.0746  -3.99     2840.041     1.569     1.545     121.3428  19.4167        120
 5.31   0.0504    775.1918   1427.2698 -83.33     2615.763     2.419     1.601     121.3675  19.5060        121
 4.44   0.0729    744.2474    556.2881 -31.78      1806.81     1.397     1.344     121.3576  19.9077        122
 6.28   0.5261    739.3663   1157.5819  19.13     250.6109     0.952     0.817      121.412  22.0525        123
 6.29   0.1431    737.0938    649.6064 -17.16      920.738     1.024     0.741     121.3032  20.6397        124
 3.50   0.0019    727.9890    848.3469  30.25     68901.98     2.331     2.281     121.3823  15.9544        125
 5.18   0.1467    728.9253   1178.0844  29.13     898.4699     1.169     1.144     121.3527  20.6662        126
 5.18   0.0832    717.3147    808.4189  37.92     1583.482     1.354     1.341     121.3131  20.0510        127
 4.42   0.1064    710.4768   1163.6831 -16.88     1238.287     1.365     1.301     121.3527  20.3179        128
 4.89   0.0855    705.7908   1339.0316  -8.21     1541.262     1.546     1.270     121.3873  20.0803        129
 3.50   0.0612    704.2485    952.4028  12.51     2153.804     1.571     1.512     121.3873  19.7170        130
 8.31   0.1709    700.3286    583.0038 -28.14     771.2242     0.915     0.210     121.3774  20.8320        131
 8.05   0.1258    692.9648   1213.7377  52.24     1048.038     1.106     0.898     121.3725  20.4991        132
 4.47   0.0625    687.0331    644.0609  20.86     2110.301     1.502     1.435     121.3725  19.7391        133
 7.94   0.3687    688.6811    130.6900 -45.48     357.4076     0.561     0.342     121.3477  21.6671        134
 3.50   0.0019    649.7230   1464.2874  21.53     68224.08     2.272     2.236     121.3626  15.9652        135
 6.56   0.2017    655.9941    870.9185 -47.36     653.3434     0.795     0.777     121.3428  21.0121        136
 6.11   0.2057    632.0373    806.2447 -86.58      640.804     1.157     0.835     121.3774  21.0332        137
 5.17   0.1310    624.8940   1581.7050  15.03     1005.524     1.277     1.149     121.3378  20.5440        138
 4.63   0.0852   1571.6420     92.3991 -33.15     1546.786     1.405     1.395     121.3922  20.0764        139
 3.50   0.0022   1564.9075    303.8499   1.62     59869.99     2.397     2.301     121.3477  16.1070        140
 4.77   0.1161   1586.1060   1108.4545   8.38     1134.765     1.338     1.175     121.3428  20.4127        141
 4.51   0.0577   1568.0105     21.5621 -10.26     2283.578     1.635     1.482     121.4071  19.6535        142
 5.70   0.0795   1567.1278    784.2486 -71.12     1656.846     1.580     1.300     121.3428  20.0018        143
 3.50   0.0022   1559.3082    487.3337  -0.52     59456.66     2.405     2.348     121.3527  16.1145        144
 5.61   0.1423   1562.6472    861.1291 -64.74      925.969     1.323     1.085     121.3428  20.6335        145
 8.80   0.2392   1552.5118   1221.5138 -45.16     550.9465     0.504     0.496     121.3527  21.1972        146
 3.50   0.0041   1508.4564    269.0314  -8.74     32292.49     2.289     2.208     121.3774  16.7772        147
 6.20   0.1906   1505.5391    722.9548  -2.20     691.5781     1.136     0.952     121.3477  20.9504        148
 3.61   0.0170   1516.2062    392.3196   7.20     7737.766     1.952     1.837     121.3428  18.3285        149
 3.76   0.0149   1039.9794    525.2744  20.33     8821.365     1.934     1.878     121.3527  18.1862        150
 8.36   0.7026   1515.6390    483.6766 -46.45     187.5391     0.584     0.328     121.3329  22.3673        151
 8.50   0.0943   1516.3275   1546.6509  44.13     1397.955     0.581     0.331     121.3378  20.1863        152
 7.26   0.4529   1080.6088    330.2124 -18.74     291.0959     0.779     0.442     121.3922  21.8899        153
 7.98   0.1134   1066.6189   1563.0844 -75.91     1161.514     1.032     0.756      121.323  20.3874        154
 5.58   0.1500   1096.8838   1526.4382  73.52     878.5518     1.164     0.970     121.3181  20.6906        155
 3.50   0.0039   1081.2822    511.9978   8.33     33763.48     2.241     2.185     121.3477  16.7289        156
 3.72   0.0185   1108.7340    427.8509   0.97         7135     1.948     1.821     121.3477  18.4165        157
 5.45   0.0531   1121.2549    329.2988  50.87     2482.966     2.177     1.617     121.3428  19.5626        158
 7.79   0.0619   1112.0398    479.4141  21.00     2128.682     1.531     0.997      121.412  19.7297        159
 6.66   0.1660   1131.3668    219.4127 -15.94     794.1535     0.960     0.831     121.3922  20.8002        160
 6.45   0.1472   1130.3435    547.3375  40.40     895.1977     1.013     0.881     121.3329  20.6702        161
 3.64   0.0173   1390.1692   1428.3566  41.15     7596.924     1.884     1.832     121.3675  18.3484        162
 8.44   0.2828   1412.2462    349.2423  18.58     466.0645     0.861     0.351     121.3725  21.3789        163
 5.47   0.0809   1152.5980     99.2354  -4.50     1629.531     1.405     1.367     121.3922  20.0198        164
 3.50   0.0041   1139.7585    147.8703   9.75     31910.03     2.286     2.171     121.3527  16.7902        165
 4.31   0.0500   1391.7516    712.9827 -44.00     2636.437     1.595     1.549     121.3972  19.4975        166
 3.50   0.0011   1436.6967   1089.2457  43.40     125433.4     2.430     1.699      121.328  15.3040        167
 4.04   0.0399   1436.6285    224.3655  28.12     3305.803     1.673     1.589     121.4021  19.2518        168
 5.56   0.0657   1416.6003   1386.4836  -0.22     2006.079     1.461     1.365     121.3428  19.7941        169
