#   1 KRON_RADIUS            Kron apertures in units of A or B                         
#   2 Y_IMAGE                Object position along y                                    [pixel]
#   3 MAG_BEST               Best of MAG_AUTO and MAG_ISOCOR                            [mag]
#   4 FLUX_BEST              Best of FLUX_AUTO and FLUX_ISOCOR                          [count]
#   5 X_IMAGE                Object position along x                                    [pixel]
#   6 THETA_IMAGE            Position angle (CCW/x)                                     [deg]
#   7 A_IMAGE                Profile RMS along major axis                               [pixel]
#   8 B_IMAGE                Profile RMS along minor axis                               [pixel]
#   9 MAGERR_BEST            RMS error for MAG_BEST                                     [mag]
#  10 NUMBER                 Running object number                                     
#  11 FLUXERR_BEST           RMS error for BEST flux                                    [count]
 3.50    182.2387  12.3855      1844156   1107.8212 -39.89     4.912     4.532   0.0001          1     151.9619
 3.50     59.9974  16.3548     47652.46   1078.7438 -71.19     3.045     3.014   0.0022          2     97.72361
 3.80     53.4462  16.5009     41652.48     63.9191   1.33     5.337     4.876   0.0046          3     178.1911
 4.08     16.9279  18.6284     5869.765    985.4625 -87.34     4.427     2.434   0.0227          4     122.5816
 3.50     18.2198  19.2037     3455.482     91.5117 -89.07     2.184     2.115   0.0214          5     68.11803
 3.54     14.9005  18.0303     10183.53   1446.0903 -42.62     2.591     2.467   0.0088          6     82.28766
 8.06      7.3019  22.4142     179.5975   1466.3320 -43.42     0.563     0.340   0.1986          7     32.84943
 6.31      5.0664  22.1931     220.1687    144.8630 -83.56     0.803     0.681   0.2128          8      43.1442
 8.49      4.0000  22.2161     215.5485   1580.0042   0.00     0.836     0.289   0.2010          9      39.8955
 6.11     25.1080  20.3278     1227.091    367.6416  25.91     1.770     1.749   0.0877         10     99.09428
 8.10     17.1741  21.2340     532.5973    385.0856 -33.22     1.396     0.608   0.1397         11     68.51292
 6.87     34.8687  21.4331     443.3542   1109.8557  64.00     1.403     0.661   0.1495         12     61.01511
 3.50     80.3081  16.3857     46314.64    537.8431 -75.15     2.976     2.935   0.0022         13     95.34827
 7.99     37.7023  21.7007     346.5166   1521.1277  69.14     0.976     0.690   0.1863         14     59.44749
 7.59     38.6061  22.3897     183.6979   1170.7451  18.03     0.754     0.451   0.2437         15     41.22571
 6.75     42.1870  22.0630     248.1896    915.0546  36.06     0.940     0.466   0.1804         16     41.22571
 5.41     44.2103  22.9884     105.8363    564.4238  70.29     0.750     0.451   0.3015         17     29.38142
 4.53     75.2320  19.9927     1670.721    128.0787  -2.00     2.038     1.769   0.0515         18     79.28223
 3.50    121.9990  15.9589     68621.27    789.4222 -43.34     3.091     2.991   0.0015         19     97.86154
 8.19     80.6871  21.1975     550.7968    422.8607 -69.48     1.831     0.583   0.1529         20     77.56223
 6.63     90.7526  20.2656      1299.39    377.0970  89.82     2.137     1.682   0.0967         21     115.6748
 4.32     96.7815  19.6291     2335.494     56.4106 -47.91     2.142     1.995   0.0383         22     82.28766
 3.50    193.6603  14.3786     294149.2    318.2503 -65.56     3.620     3.229   0.0004         23     110.3027
 6.51     97.9849  21.1113     596.3466    453.0418 -10.20     1.999     0.927   0.1487         24     81.62935
 3.96    170.5666  18.1836     8841.938    877.6066 -15.84     2.602     2.549   0.0116         25     94.06646
 3.50    162.5963  16.5854     38533.64   1468.6017 -50.03     2.946     2.848   0.0026         26     93.63528
 4.04    234.9475  16.3565     47577.57    403.9568 -44.17     6.716     5.681   0.0052         27     229.7113
 4.54    131.7585  23.0368     101.2267   1511.9980  -0.09     0.691     0.428   0.2492         28     23.22806
 7.85    131.3489  22.5310      161.285    417.6746  45.96     0.580     0.331   0.2156         29     32.01767
 6.89    165.6580  20.9379      699.614   1446.0771 -42.49     1.415     1.198   0.1280         30     82.45142
 4.73    166.8963  21.0936     606.0981    104.9961 -74.33     1.508     1.309   0.1089         31     60.79364
 5.90    159.3234  23.3087     78.79614    537.6866  45.51     0.564     0.340   0.3280         32     23.80167
 6.19    192.8279  20.1581     1434.742   1350.5507 -34.85     2.995     1.451   0.0897         33     118.4403
 5.02    211.0280  18.7489     5253.574    827.9761  -4.84     4.227     2.650   0.0320         34     154.8634
 4.53    206.7372  19.8307     1939.602    549.4034 -48.39     2.105     1.879   0.0463         35     82.77796
 4.65    212.5210  19.9672     1710.501   1306.4326 -68.03     2.091     1.821   0.0533         36     83.91085
 5.40    230.1652  18.7606     5197.177    562.5081 -38.49     3.810     3.408   0.0375         37      179.323
 6.08    209.1250  20.3404     1212.988    349.5309  12.30     2.423     1.452   0.0937         38     104.6552
 3.50    260.0322  15.4965       105054    997.7167 -32.12     3.194     3.098   0.0010         39     101.2487
 7.81    202.8634  22.0954     240.8987    250.2823  19.02     0.953     0.674   0.2597         40     57.60371
 6.93    210.9014  21.3324     486.4434    684.3036 -59.48     1.540     1.020   0.1789         41     80.12838
 4.16    224.0377  19.8486     1907.911   1226.2937 -23.73     2.086     1.923   0.0438         42     76.86346
 7.03    221.8811  20.4469     1099.639    346.7842   7.61     2.225     1.519   0.1175         43     119.0084
 5.37    222.7527  20.8822      736.385    775.3899 -54.77     1.809     1.449   0.1174         44     79.62177
 3.50    266.0527  15.6978     87272.13     67.7354 -43.78     3.128     3.024   0.0012         45     98.68507
 5.84    243.7053  19.8022     1991.209    113.0364 -77.12     2.694     1.956   0.0673         46     123.3495
 3.50    312.5910  14.1581     360379.8    439.6373 -48.13     3.406     3.276   0.0003         47     107.3277
 7.24    239.4138  21.0408     636.3308    838.7144 -80.72     1.844     0.858   0.1429         48     83.74995
 4.74    255.5604  18.9888     4211.916    613.4468 -39.07     3.019     2.554   0.0313         49      121.254
 7.87    229.6942  23.1374     92.26514    538.6587 -43.29     0.568     0.338   0.3867         50     32.84943
 3.50    287.9363  17.2559     20779.57   1486.5533 -28.72     3.094     2.740   0.0049         51     93.63528
 8.46    252.1395  21.2345     532.3313   1374.1746   9.83     0.995     0.700   0.1315         52     64.45524
 7.81    253.6793  22.4201     178.6279   1353.6771 -44.89     0.567     0.339   0.1947         53     32.01767
 3.50    282.1217  18.9520      4357.13   1522.4907 -38.99     2.404     2.334   0.0190         54     76.15827
 3.50    351.6739  14.2875     319900.1    891.0381 -50.77     3.498     3.322   0.0004         55     109.5665
 3.50    318.9506  16.1094     59736.08    905.7338 -52.66     3.057     2.975   0.0018         56     97.03101
 3.50    303.2986  17.6228     14820.82    201.9461  81.04     2.728     2.688   0.0064         57     87.22128
 4.90    289.9463  19.8157     1966.665    515.3391  73.50     2.317     2.098   0.0550         58     99.63726
 3.50    351.7511  14.3298     307662.5   1346.0488 -34.10     3.424     3.249   0.0004         59      107.076
 4.32    294.1810  19.8894      1837.63   1327.9517 -78.21     2.116     1.894   0.0471         60     79.62177
 5.65    298.0721  20.5097     1037.802   1413.6317 -45.20     2.558     1.413   0.1031         61     98.54829
 3.50    322.3132  18.0808     9720.434    697.5565  78.95     2.545     2.527   0.0092         62     81.95917
 6.17    302.6077  20.6898     879.2203    563.7846  -2.74     1.690     1.453   0.1106         63     89.51093
 4.52    346.6619  18.3972      7263.25    867.2843  27.15     2.916     2.612   0.0135         64     90.25874
 8.03    308.3838  20.9297     704.9058     86.2233  87.87     1.279     0.996   0.1280         65     83.10322
 5.75    327.8482  19.6319     2329.455    595.7621 -36.78     2.316     2.180   0.0555         66     119.0084
 7.13    323.0114  21.0044     658.0234    640.0057  69.43     1.493     1.018   0.1331         67     80.63181
 7.88    321.4943  20.8201     779.7505    643.4767  50.10     1.843     0.825   0.1257         68     90.26125
 4.04    355.9810  18.6834     5580.223    432.0928  80.61     2.694     2.476   0.0186         69     95.48963
 7.19    331.8545  21.3677     470.9088     93.1126  72.97     1.157     0.864   0.1543         70     66.91938
 3.66    368.6590  17.9656     10808.84    760.9850 -48.40     3.229     2.592   0.0098         71     97.58548
 7.55    329.5132  22.2757     204.0485   1546.5171  -0.14     1.090     0.500   0.2751         72     51.67916
 6.66    335.8877  21.6973       347.59   1440.3259   8.40     1.151     0.720   0.1725         73     55.21246
 5.33    349.9268  20.5668     984.6124     54.7275 -33.05     1.707     1.422   0.0842         74     76.33518
 4.08    367.4095  19.0268     4066.953    442.9427  73.16     2.468     2.457   0.0246         75     92.18349
 3.50    395.3917  16.2835     50887.91    231.5978 -62.86     3.045     2.976   0.0021         76     96.47336
 4.55    361.4847  19.9401     1753.718   1500.6577 -19.24     2.057     1.898   0.0514         77     82.94075
 5.79    361.1364  21.5286     406.0155   1034.1516  63.30     1.358     0.944   0.1632         78     61.01511
 7.96    359.5301  21.5391      402.137    533.7626 -62.94     1.324     0.535   0.1666         79     61.67476
 7.34    362.5314  22.1596      227.066   1415.3390 -89.56     0.920     0.473   0.2137         80     44.68006
 5.59    381.1294  20.4855     1061.165      1.9302  89.15     2.381     0.903   0.0631         81     61.67476
 5.49    372.8766  21.2671     516.6102    992.5557 -78.52     1.555     1.090   0.1385         82     65.90385
 6.97    372.0318  21.2842     508.5281     70.7653 -55.38     1.399     0.754   0.1407         83     65.90385
 3.83    398.3482  18.2472     8338.778    354.7326  46.69     2.574     2.564   0.0118         84     90.55963
 3.62    397.4170  18.4734     6770.827   1461.3718 -31.94     2.577     2.377   0.0132         85     82.45142
 6.50    370.0134  22.4934     166.9764    209.0098  -0.68     0.615     0.606   0.2291         86     35.22709
 8.08    372.8884  21.4414     439.9702   1084.1632 -12.05     1.030     0.665   0.1522         87     61.67476
 3.50    419.8457  16.3941     45956.42    433.5670 -54.32     2.911     2.899   0.0022         88     93.34673
 3.73    393.9712  20.0296     1614.883   1088.8979 -52.36     1.987     1.909   0.0455         89     67.72084
 5.12    412.5887  19.7600     2070.049      2.3713  89.00     3.544     1.277   0.0432         90     82.28766
 3.50    415.8865  17.1971     21936.01    837.5073 -42.69     2.795     2.687   0.0044         91      88.4498
 7.66    382.1581  21.9646      271.745     67.4952 -36.04     0.910     0.678   0.2187         92     54.72167
 7.63    383.7711  22.2648     206.1029      9.8583  11.59     1.358     0.557   0.1918         93     36.39113
 7.90    397.2685  21.0269     644.5524    626.1052 -77.88     1.385     0.808   0.1292         94     76.68777
 3.50    424.4074  19.1039      3788.23    926.5994 -74.38     2.411     2.207   0.0213         95     74.36607
 3.50    438.1793  17.5268     16191.31    252.3252  -7.72     2.790     2.705   0.0060         96     88.90612
 3.50    461.3314  15.1525     144204.8    807.6804 -41.34     3.178     3.081   0.0008         97     101.2487
 6.42    420.9558  20.2692     1295.124    159.3079  43.28     2.158     1.705   0.0949         98     113.1995
 5.20    433.1000  20.3289     1225.857   1422.1897  69.53     1.816     1.716   0.0752         99     84.86987
 4.50    450.5894  18.6656     5672.178     21.4207  29.10     2.486     2.460   0.0196        100      102.309
 5.81    426.7534  21.6544     361.6232   1180.0172  34.23     1.461     0.792   0.1730        101     57.60371
 4.72    468.1039  18.3223     7781.688    851.1541  23.76     7.117     2.572   0.0260        102     186.1146
 6.89    434.3987  20.9541     689.1921    150.7365   5.03     1.835     1.044   0.1384        103     87.83768
 8.49    431.0077  21.6931     348.9613    720.1688  54.18     0.930     0.469   0.1584        104     50.89012
 6.20    444.9543  20.4535     1092.901    122.5157  59.24     1.881     1.549   0.0970        105     97.58548
 4.06    457.9190  18.5526     6294.542     34.5368 -17.68     2.654     2.427   0.0164        106     94.92292
 5.31    440.3495  21.2935     504.1871    305.9941   4.53     1.300     1.115   0.1266        107     58.76285
 5.33    447.8613  20.9908     666.3308    885.2292   1.04     1.961     1.221   0.1244        108     76.33518
 4.20    463.9481  19.9339      1763.74    468.8448  47.85     2.214     1.898   0.0488        109     79.28223
 5.99    461.4201  21.2441     527.6787   1096.9908  70.01     1.411     1.077   0.1390        110     67.52136
 8.24    452.3464  22.2977     199.9425   1534.3280 -45.75     0.581     0.331   0.1828        111     33.66065
 3.50    478.1534  19.4580     2734.067    923.1714 -42.86     2.291     2.063   0.0277        112     69.68417
 3.63    472.2752  19.7778     2036.418    735.0540  13.65     2.058     1.947   0.0360        113     67.52136
 5.14    471.5919  19.9664     1711.731    254.7253   9.05     1.980     1.869   0.0578        114     91.15347
 5.65    455.3133  23.1759     89.04712   1227.3334 -44.02     0.568     0.338   0.2761        115     22.63991
 3.98    596.9890  18.6468     5771.424    782.9262 -87.82     3.615     3.453   0.0243        116     128.9105
 4.31    478.5005  20.5205     1027.505   1277.1139 -65.71     2.064     1.726   0.0792        117     74.90823
 7.45    462.3968  21.9127     285.0431    722.7952 -12.80     1.120     0.417   0.1781        118     46.74556
 3.50    512.7224  17.7727     12910.09   1303.0808   1.00     3.397     2.606   0.0080        119     95.63078
 4.37    533.1533  17.1921     22038.28    519.0990  25.24     4.785     4.361   0.0091        120      184.367
 6.02    495.6913  19.3987     2887.437     82.7940 -76.01     2.777     2.530   0.0553        121     146.9989
 3.92    483.9861  20.5160     1031.808   1070.6866 -32.20     1.908     1.620   0.0667        122     63.40025
 4.69    495.7628  19.6487     2293.628   1186.4955 -10.67     3.121     2.244   0.0542        123     114.3849
 6.94    489.6826  21.1028     601.0212    839.3377  48.25     1.545     1.140   0.1531        124     84.71078
 4.65    502.2021  21.2984     501.9082    863.7810 -39.11     1.826     1.368   0.1465        125     67.72084
 5.54    504.4456  20.3688     1181.629    763.2783 -18.82     2.324     1.464   0.0867        126     94.35281
 4.30    515.7267  19.2837     3209.982   1461.0349  21.85     4.019     2.030   0.0383        127     113.3186
 8.21    499.3254  22.2425     210.3738    366.3373 -44.48     0.576     0.334   0.1738        128     33.66065
 3.50    588.2134  14.2515       330659   1315.9587 -42.43     3.351     3.219   0.0003        129     106.0635
 8.43    510.5000  20.8727     742.8499    163.0072 -31.60     1.377     0.905   0.1273        130     87.06649
 7.83    509.5540  21.1604     569.9327    166.5013  60.62     1.072     0.826   0.1302        131     68.31577
 6.71    509.5146  21.9600     272.8888    454.2385 -89.84     0.978     0.719   0.2046        132     51.41749
 6.10    513.6796  21.0600     625.1858   1179.5034   5.85     1.539     1.119   0.1279        133     73.63697
 6.29    518.5699  21.6181     373.9127    642.8600 -29.67     1.255     0.759   0.1659        134     57.13346
 3.53    540.5427  20.1172     1489.718   1000.0333 -48.23     2.151     1.744   0.0462        135     63.40025
 8.69    536.4771  22.2328     212.2686    402.4881 -37.00     0.500     0.499   0.2058        136     40.23217
 3.52    559.1711  19.7186     2150.646   1041.8425 -30.51     2.139     1.954   0.0335        137     66.31193
 3.56    572.9426  18.4466     6939.859   1242.7992 -27.79     2.522     2.450   0.0127        138     81.13211
 3.50    631.4161  13.6244     589185.2    483.3755 -44.03     3.483     3.337   0.0002        139     110.3027
 3.83    580.9929  18.0828     9702.464    145.0090 -71.13     2.633     2.498   0.0101        140     90.26125
 3.54    582.3829  18.0902     9636.118    319.3545 -38.03     2.643     2.519   0.0095        141     84.71078
 4.74    571.4081  19.9242     1779.618     45.8489  54.95     2.361     1.903   0.0564        142     92.47567
 4.55    550.7809  23.5301     64.26135    143.9820  -0.87     0.655     0.414   0.3511        143      20.7758
 4.61    571.8535  20.1326      1468.81   1447.7355  40.13     2.426     1.906   0.0673        144     91.00538
 8.47    565.4221  20.7270     849.5422    139.1938 -84.40     1.745     0.805   0.1182        145     92.47567
 6.35    575.3669  20.1729     1415.312   1336.4686 -61.19     2.361     1.801   0.0581        146     75.70512
 5.78    577.0038  21.7531     330.1871   1002.5832  -1.68     1.329     1.013   0.2029        147     61.67476
 4.94    584.7218  21.0565     627.1913     75.8023  73.68     1.554     1.136   0.1037        148     59.89957
 3.50    605.4258  20.5587     991.9878    586.3757 -89.35     1.953     1.583   0.0620        149     56.65932
 3.50    985.2014  16.8697     29656.48    558.6801 -34.53     2.937     2.856   0.0034        150     93.34673
 5.26   1598.7227  21.5329     404.4142    655.0228 -33.96     1.480     1.007   0.1261        151     46.97068
 6.25   1595.9941  22.2156     215.6456    652.7838 -22.73     1.121     0.683   0.1526        152     30.30628
 4.43   1599.4045  22.0051     261.7971     20.3169 -17.39     1.692     0.641   0.1477        153     35.60794
 8.91   1594.3894  22.0021     262.5247   1387.1508  19.77     0.757     0.441   0.1969        154     47.60335
 4.10   1584.9974  20.4131     1134.348   1108.8921  -5.70     1.845     1.581   0.0615        155     64.24563
 5.03   1585.4873  22.8967     115.1669   1068.7311  53.74     1.360     0.225   0.2399        156     25.44506
 3.50   1566.8105  19.8503      1904.89     22.0706  39.44     2.151     1.984   0.0379        157     66.51503
 3.54   1565.8353  20.3732     1176.873    784.5983  73.81     2.207     1.782   0.0593        158     64.24563
 3.50   1558.1235  16.1221      59040.2    487.7611 -84.10     2.956     2.930   0.0018        159      95.2067
 3.50   1552.8148  17.1187     23579.58    682.2031 -28.16     4.833     4.349   0.0068        160     147.9137
 5.03    860.5712  20.9348     701.5554   1157.2614  64.74     1.678     1.440   0.1117        161     72.15668
 5.33    858.9348  21.3835      464.101   1339.6710 -55.93     1.493     1.142   0.1508        162     64.45524
 7.29    888.8391  20.5334     1015.392    326.1275 -21.70     1.643     1.358   0.1076        163     100.5804
 7.89    857.8146  22.3627      188.324    144.3609 -72.36     0.763     0.442   0.2452        164     42.51432
 7.36    845.2385  21.1006     602.2133   1206.7559  81.58     1.556     1.285   0.1063        165     58.91926
 6.71    845.2845  20.7433     836.8947   1064.4720 -12.05     1.499     1.313   0.1124        166     86.60047
 5.66    843.5905  20.3954     1153.067   1106.4135  36.83     1.834     1.672   0.0864        167     91.74347
 5.49    838.0015  19.6950     2197.781   1247.0173 -49.58     2.417     2.125   0.0569        168     115.0903
 5.67    836.8416  19.9973     1663.726    299.0053 -59.74     2.103     1.772   0.0659        169     100.9819
