#   1 KRON_RADIUS            Kron apertures in units of A or B                         
#   2 MAGERR_APER            RMS error vector for fixed aperture mag.                   [mag]
#   3 Y_IMAGE                Object position along y                                    [pixel]
#   4 X_IMAGE                Object position along x                                    [pixel]
#   5 THETA_IMAGE            Position angle (CCW/x)                                     [deg]
#   6 FLUX_APER              Flux vector within fixed circular aperture(s)              [count]
#   7 A_IMAGE                Profile RMS along major axis                               [pixel]
#   8 B_IMAGE                Profile RMS along minor axis                               [pixel]
#   9 FLUX_RADIUS            Fraction-of-light radii                                    [pixel]
#  10 FLUXERR_APER           RMS error vector for aperture flux(es)                     [count]
#  11 MAG_APER               Fixed aperture magnitude vector                            [mag]
#  12 NUMBER                 Running object number                                     
 4.48   0.0057     54.1134     63.6375   5.15     26018.87     4.168     3.795     13.268     137.4997  17.0118          1
 4.18   0.0353     17.2518    984.8208 -88.85      4230.98     3.632     1.613      8.985     137.5464  18.9839          2
 3.73   0.0427     18.7921     91.0527 -67.39     3496.018     1.546     1.431      4.542     137.6086  19.1911          3
 3.50   0.0163     15.4424   1445.5559 -62.54     9182.711     1.650     1.566      4.377     137.5619  18.1426          4
 5.77   0.3567     18.1645    384.1515  44.06     418.7782     0.761     0.567      2.638     137.5308  21.4950          5
 4.27   0.2335     25.5739    366.8953 -14.68     639.4495     1.150     0.962      3.903     137.4686  21.0355          6
 3.50   0.0035     60.5962   1078.2424  76.97     42191.95     1.998     1.878      4.916     137.5619  16.4869          7
 7.73   0.5219     43.3143    915.3513 -43.40     286.0195     0.576     0.333      2.643      137.453  21.9090          8
 3.50   0.0037     80.9674    537.4247 -67.18     40597.57     1.917     1.816      4.756     137.5153  16.5287          9
 3.50   0.0002    182.7543   1107.3114 -33.84     927295.9     5.320     4.706      8.866     137.4374  13.1320         10
 4.26   0.1008     76.0034    127.7169  10.01     1481.443     1.188     1.148      4.332     137.5153  20.1233         11
 3.50   0.0025    122.5943    788.9246 -61.36     60681.44     2.004     1.876      4.920      137.593  16.0924         12
 4.04   0.0730     97.4281     55.9913  22.71     2044.642     1.346     1.270      4.499     137.5308  19.7735         13
 8.23   0.2294     90.8850    376.7019 -20.39     650.1869     0.956     0.688      3.944     137.3596  21.0174         14
 3.50   0.0006    194.4246    317.8832 -61.43     258271.9     2.286     2.051      5.208     137.4997  14.5198         15
 3.50   0.0044    163.1353   1468.1381 -62.55      34025.3     1.875     1.794      4.757      137.453  16.7205         16
 3.50   0.0192    171.1655    877.1136 -49.92      7771.33     1.630     1.557      4.491     137.4997  18.3238         17
 4.79   0.3369    165.7308   1445.5076   4.02     442.9841     0.992     0.930      4.204     137.4374  21.4340         18
 5.69   0.0980    172.4128    325.0309 -77.11     1524.251     1.272     1.156      6.059     137.5619  20.0924         19
 4.93   0.3167    167.6038    104.1795 -53.71     471.4823     1.013     0.798      3.013     137.4997  21.3663         20
 4.76   0.0063    235.9160    403.1274 -54.98     23845.17     4.971     4.426     17.191     137.4063  17.1065         21
 4.98   0.1778    193.4423   1350.3160 -32.41     839.5272     1.126     0.910      3.471     137.4841  20.7399         22
 5.44   0.0461    211.5265    827.6342  -7.65     3235.749     2.457     1.586      9.252     137.4841  19.2751         23
 4.12   0.0941    207.4942    548.9372 -80.12     1586.652     1.310     1.143      4.418      137.453  20.0488         24
 7.25   0.3224    204.4811    250.5076  36.96     463.0266     0.500     0.499      3.002     137.4686  21.3860         25
 6.64   0.1590    209.4116    349.7701  22.88     939.4534     1.196     0.965      5.160     137.5619  20.6178         26
 3.50   0.1025    213.0077   1305.9434 -30.97      1458.11     1.201     1.190      3.474     137.6241  20.1405         27
 8.44   0.3779    211.2228    684.6010 -71.57     395.1153     0.753     0.451      1.395     137.4997  21.5582         28
 5.97   0.0565    230.9360    562.0312  11.84     2641.257     2.312     2.091      9.862     137.5308  19.4955         29
 6.71   0.0493    229.8141    414.8990 -71.47     3030.901     1.710     1.547      9.790     137.4686  19.3461         30
 4.37   0.0943    224.6008   1225.8378 -85.78     1583.528     1.311     1.279      3.859     137.4997  20.0509         31
 4.83   0.4653    223.2310    774.5986 -29.44     320.8983     1.026     0.798      3.922     137.4841  21.7841         32
 3.50   0.0013    260.5680    997.2263 -60.60       114058     2.037     1.924      5.035     137.5153  15.4072         33
 9.13   0.1339    223.0016    345.4901 -88.29     1115.061     0.803     0.500      4.820      137.453  20.4318         34
 3.50   0.0019    266.6997     67.3946 -76.33     77241.67     1.982     1.886      5.039     137.4841  15.8304         35
 6.52   0.1132    244.6537    112.8341  75.03     1319.433     1.395     1.155      5.621     137.5464  20.2490         36
 5.17   0.0473    256.3477    612.7624 -34.58     3154.948     1.872     1.547      6.642     137.5308  19.3025         37
 7.49   0.3091    251.4937    107.4909 -45.11     482.6567     0.506     0.494      3.033     137.3907  21.3409         38
 8.17   0.3319    252.6854   1372.6636 -43.97     449.7502     0.570     0.337      3.323     137.4374  21.4176         39
 3.50   0.0005    313.2004    439.2152 -61.04     315338.9     2.247     2.086      5.258     137.4841  14.3031         40
 3.50   0.0084    288.3480   1486.2738 -54.17     17797.84     1.751     1.674      4.589     137.4219  17.4241         41
 3.50   0.0404    282.7493   1522.1841 -61.33     3700.069     1.460     1.360      4.004     137.5775  19.1295         42
 5.11   0.0920    290.6356    514.7411 -36.50     1623.778     1.462     1.311      5.660     137.5308  20.0237         43
 3.50   0.0111    303.9778    201.5832 -66.85     13438.37     1.714     1.615      4.592     137.4997  17.7291         44
 3.50   0.0028    319.4937    905.2718 -62.35     53434.83     1.956     1.848      4.960     137.4374  16.2304         45
 4.02   0.1010    294.7511   1327.3948  47.22      1479.08     1.274     1.263      4.086     137.6086  20.1250         46
 6.28   0.1980    294.3224   1475.1021  11.40     753.5058     0.727     0.658      3.866     137.4063  20.8573         47
 8.31   0.1499    297.8722   1413.8578 -46.31     996.0042     0.853     0.671      5.119      137.453  20.5543         48
 3.50   0.0005    352.2238    890.5839 -55.85     278733.2     2.209     2.073      5.231     137.4997  14.4370         49
 3.50   0.0006    352.2397   1345.7283 -55.48     268917.5     2.185     2.061      5.202     137.5153  14.4760         50
 6.53   0.2100    303.0704    563.5995 -17.06     711.4139     1.007     0.742      3.814     137.5775  20.9197         51
 3.50   0.0173    322.8800    697.1052 -48.65     8644.975     1.600     1.557      4.467     137.4063  18.2081         52
 7.23   0.2638    322.3919    640.9913 -72.88     565.9423     1.533     0.349      3.884      137.453  21.1681         53
 4.85   0.0948    328.2270    595.3594  12.77     1575.442     1.342     1.284      5.614     137.5775  20.0565         54
 3.88   0.0239    347.1299    866.8550 -43.34     6252.625     1.633     1.498      4.806      137.453  18.5598         55
 6.55   1.0525    332.9962     93.4646 -88.40     141.9696     0.778     0.498      2.731      137.593  22.6695         56
 5.92   0.7021    336.1976   1440.3890  71.88     212.6388     0.728     0.454      3.433     137.4686  22.2309         57
 3.94   0.0311    356.6004    431.5988 -75.33     4805.835     1.788     1.580      5.294     137.5464  18.8456         58
 4.14   0.1438    350.8954     54.4239  75.90     1038.466     1.126     0.959      3.990     137.4841  20.5090         59
 3.50   0.0163    368.9802    760.8908 -58.40     9155.823     1.598     1.559      4.450     137.4841  18.1458         60
 3.76   0.0466    368.2882    442.6587 -56.28     3205.995     1.435     1.336      4.215     137.4374  19.2851         61
 3.62   0.0990    362.0505   1500.2076 -24.28     1509.234     1.284     1.149      3.713     137.5775  20.1031         62
 5.05   1.0235    361.3106   1033.9282 -13.90     145.8242     0.739     0.661      3.107     137.4374  22.6404         63
 3.50   0.0033    396.0200    231.2718 -61.09     44667.09     1.874     1.819      4.945      137.593  16.4250         64
 5.48   0.2344    373.7695    992.0414 -88.68     637.3109     0.894     0.751      3.740     137.5775  21.0391         65
 3.50   0.0247    397.8937   1461.0099 -39.50     6039.777     1.563     1.472      4.441     137.4841  18.5974         66
 3.50   0.0214    399.0078    354.3785 -71.51     6969.048     1.585     1.493      4.299     137.4997  18.4421         67
 3.66   0.1113    394.5766   1088.5724 -29.99     1342.182     1.284     1.233      3.895     137.5308  20.2305         68
 3.50   0.0076    416.4507    837.1747 -64.92     19717.07     1.798     1.680      4.777      137.593  17.3129         69
 3.50   0.0036    420.3988    433.1456 -58.39     40965.92     1.886     1.783      4.911     137.6086  16.5189         70
 3.75   0.0459    425.0381    926.1504 -47.65     3252.397     1.483     1.353      4.321     137.5308  19.2695         71
 3.50   0.0101    438.7664    251.9352 -45.10     14734.96     1.713     1.632      4.649     137.5153  17.6291         72
 6.61   0.1537    421.7399    158.5126  -7.53     971.0057     1.013     0.987      5.468     137.4374  20.5819         73
 3.50   0.0012    461.8574    807.3825 -54.53     126651.2     2.057     1.941      5.098     137.5308  15.2935         74
 3.76   0.1255    433.8073   1421.8584  31.89     1190.995     1.177     1.104      3.880     137.6086  20.3602         75
 8.40   0.4482    427.5076   1179.4756  48.21       332.95     0.502     0.497      3.012     137.4219  21.7441         76
 6.16   0.2618    434.9740    150.9762  35.97     570.6636     0.787     0.769      4.291     137.5464  21.1590         77
 4.40   0.2421    440.6718    305.3953 -46.54     617.1151     0.991     0.875      2.863     137.5775  21.0741         78
 3.73   0.0326    451.1180     21.1858 -35.06       4587.1     1.529     1.416      4.577     137.5464  18.8962         79
 5.41   0.0389    468.5997    850.2263  23.11     3834.755     5.828     1.566     17.384     137.4841  19.0907         80
 6.23   0.2176    446.1815    121.9023 -14.29     686.0098     1.080     0.836      4.083     137.4841  20.9592         81
 3.57   0.0295    458.6487     34.3971 -57.41     5060.191     1.520     1.448      4.534     137.6086  18.7896         82
 8.14   0.1740    448.2517    883.8757  -7.80     857.6071     1.041     0.643      5.917     137.4219  20.7168         83
 3.80   0.0792    464.5070    468.4641 -52.99     1884.278     1.324     1.266      4.526     137.4686  19.8621         84
 5.86   0.2659    461.8690   1096.1428  45.45     561.4407     0.823     0.671      4.314      137.453  21.1767         85
 3.98   0.0730    472.9391    734.7498 -68.45     2046.623     1.361     1.217      4.570     137.4841  19.7724         86
 4.43   0.1072    472.1027    253.9982 -64.88     1393.052     1.241     1.108      3.915     137.4841  20.1901         87
 3.50   0.0532    478.7898    922.8477 -20.02     2806.022     1.403     1.353      4.043     137.5775  19.4298         88
 4.07   0.1871    478.8117   1276.7957 -50.21      797.824     1.136     1.024      3.602      137.453  20.7952         89
 3.50   0.1282    485.0125   1070.3956 -46.82     1164.009     1.195     1.127      3.662      137.453  20.3851         90
 5.91   0.0888    496.9854     82.8541  55.90     1682.908     1.818     1.496      6.691     137.5775  19.9848         91
 5.91   0.0798    496.5325   1187.0388 -13.62     1870.349     2.128     1.330      7.570     137.5153  19.8702         92
 3.50   0.0139    513.2896   1302.2393 -42.36     10756.62     1.658     1.592      4.562      137.453  17.9708         93
 4.84   0.0113    533.8892    518.5785  30.84     13259.94     3.346     2.728     11.485     137.4997  17.7436         94
 6.60   0.1393    505.0350    762.6558 -88.65     1071.905     1.252     1.016      5.736     137.5308  20.4746         95
 4.63   0.2369    502.7391    863.4894 -40.17     630.1848     0.963     0.954      3.439      137.453  21.0513         96
 6.18   0.3839    499.0000    365.9927   0.00     388.7872     0.843     0.289      2.371      137.453  21.5757         97
 5.71   0.0674    516.2209   1461.1857  26.90     2216.095     2.828     1.249     11.345     137.4841  19.6860         98
 5.94   0.2054    502.4906   1309.9664  -3.30     726.6779     0.785     0.499      2.516     137.4686  20.8966         99
 4.97   0.0945    514.1891   1310.0686  12.56     1581.625     1.453     1.166      4.874      137.593  20.0522        100
 7.49   0.2267    510.6530    165.5925   6.25     659.2333     1.008     0.636      6.047     137.6241  21.0024        101
 4.21   0.1878    514.4960   1179.0830 -43.70     794.5833     1.130     0.881      3.713     137.3752  20.7997        102
 6.59   0.3162    520.1537    641.3141 -60.97     472.1264     0.857     0.594      3.172     137.4841  21.3649        103
 4.14   0.1121    541.0002    999.6945 -62.31     1331.541     1.250     1.160      4.521     137.4841  20.2391        104
 3.50   0.0005    588.6879   1315.8539 -55.49     290173.5     2.187     2.068      5.176     137.4374  14.3934        105
 3.68   0.0708    559.7887   1041.5302 -54.92     2109.582     1.373     1.305      4.271     137.5775  19.7395        106
 3.60   0.0237    573.4073   1242.7402 -36.74     6300.854     1.543     1.528      4.283     137.6086  18.5515        107
 3.50   0.0169    581.4571    144.8192 -63.56     8852.557     1.639     1.537      4.434     137.5308  18.1823        108
 5.40   0.1016    571.8488     45.7987  65.71     1471.162     1.497     1.163      5.060     137.6086  20.1308        109
 7.49   0.2489    565.9841    139.5040 -87.66     599.8798     0.791     0.499      4.409     137.4997  21.1048        110
 5.53   0.0969    572.0419   1447.5493  18.02     1541.881     1.733     1.229      6.286     137.5464  20.0799        111
 3.50   0.0173    583.0026    319.0012 -42.00     8649.829     1.607     1.563      4.448     137.5464  18.2075        112
 3.50   0.0003    631.9539    483.1635 -57.26     515271.7     2.648     2.496      5.685     137.5619  13.7699        113
 5.70   0.1337    575.7169   1336.6877 -52.10     1116.582     1.150     1.091      4.796     137.4219  20.4303        114
 5.48   0.0368    597.8709    782.6802 -74.06      4053.06     2.429     2.215      9.639     137.4374  19.0305        115
 8.26   0.4194    577.3349   1001.3214 -45.62     355.8741     0.573     0.336      3.212     137.4219  21.6718        116
 5.50   0.3313    585.4738     75.7457 -67.57     450.5876     0.965     0.954      3.653      137.453  21.4156        117
 5.11   0.1814   1000.6995   1273.7892 -23.88     823.0325     1.129     1.019      4.458      137.453  20.7615        118
 6.74   0.1569   1598.4836    654.9836 -35.24     778.8146     1.182     0.755      5.807     112.5092  20.8214        119
 6.67   0.2342   1595.9614    374.0274  41.76      591.777     0.803     0.781      4.817     127.6381  21.1196        120
 4.97   0.0940   1030.9441    302.6436  65.88     1589.138     1.852     1.356      6.540     137.4997  20.0471        121
 3.50   0.0056    985.6684    558.4529 -53.00     26475.93     1.772     1.703      4.787      137.453  16.9929        122
 5.84   0.0961    987.3660    453.8745 -69.95     1553.642     1.342     1.151      6.262     137.4841  20.0716        123
 5.99   0.1913    981.6799    797.8624 -17.31     780.1044     1.182     0.957      5.296     137.4219  20.8196        124
 6.62   0.1707    979.0314    452.5188  89.17     874.9778     0.783     0.500      3.954     137.4997  20.6950        125
 6.68   0.3619    965.8215    416.1882 -42.86     412.6485     0.760     0.564      4.561     137.4997  21.5110        126
 7.04   0.1548    952.0219    654.1979   4.29     964.8997     0.935     0.751      5.433     137.5153  20.5888        127
 6.46   0.2644    948.6243    445.2148 -17.64     564.8632     0.743     0.450      3.400     137.4997  21.1701        128
 4.52   0.0917    939.9567   1066.9950 -68.97     1628.784     1.243     1.183      4.565     137.5619  20.0203        129
 7.30   0.1528    939.0000    516.0090   0.00     976.8571     0.850     0.289      3.122      137.453  20.5754        130
 3.50   0.0109    930.5116   1178.4536 -45.18     13729.05     1.683     1.645      4.771     137.4374  17.7059        131
 4.77   0.1701    929.1415   1322.3268  77.80     877.5969     1.175     1.037      4.755      137.453  20.6918        132
 5.03   0.2127    913.6597    838.4653 -71.80      701.876     1.086     0.994      4.685     137.4686  20.9343        133
 6.17   0.3792    913.1230   1000.8743  43.79     393.6394     0.820     0.671      3.320     137.4374  21.5623        134
 8.68   0.3782    905.6592   1315.3329  45.32     394.7533     0.580     0.332      3.145     137.4686  21.5592        135
 3.50   0.0259    901.2381    302.7928 -69.84     5774.941     1.533     1.467      4.337     137.5308  18.6461        136
 3.50   0.0002    882.8272    183.6641 -39.56     925257.7     3.801     3.437      6.233     137.5308  13.1343        137
 5.65   0.1428    897.0488    538.2656   9.28     1045.286     1.371     1.213      4.669     137.4841  20.5019        138
 7.63   0.4416    894.9872   1425.7455 -89.31     338.2988     0.680     0.436      4.077     137.5775  21.7267        139
 4.91   0.0367    880.3037    224.4290  89.77     4063.999     6.075     1.576     13.687     137.4374  19.0276        140
 7.12   0.1727    889.8623    325.2966  21.97     864.2259     0.959     0.675      5.252     137.4219  20.7084        141
 3.50   0.0015    881.0632   1592.5182 -59.42     101707.1     1.984     1.890      4.987     137.4219  15.5316        142
 4.97   0.2377    886.4539   1500.2401 -30.10     628.1815     1.097     0.931      3.969     137.4997  21.0548        143
 7.16   0.2479    886.5475   1304.7545  58.27     602.4781     1.054     0.816      5.886     137.5153  21.1001        144
 6.70   0.1275    878.9013   1177.0784  56.73     1170.767     1.248     1.121      7.254     137.4063  20.3788        145
 5.94   0.2394    878.3253    960.7850 -76.58     624.2584     0.962     0.858      3.561     137.6241  21.0616        146
 4.98   0.0594    870.2983   1103.6595 -66.59     2511.415     1.675     1.512      6.296     137.4063  19.5502        147
 3.50   0.0006    860.0699   1224.5084 -53.73     254002.8     2.187     2.076      5.233     137.4374  14.5379        148
 6.06   0.1747    868.7755    939.6843  20.35     854.7029     1.410     1.024      5.793     137.5153  20.7205        149
 6.07   0.1448    860.3856   1157.3900 -40.75     1031.184     1.043     0.950      5.093      137.453  20.5167        150
 6.11   0.3179    859.2457   1339.6561 -65.63     469.7579     1.116     0.876      3.656     137.4997  21.3703        151
 7.31   0.1538    845.3869   1206.3982 -18.93     971.0095     0.968     0.807      5.810     137.4841  20.5819        152
 6.09   0.2775    845.9082   1063.6815 -35.52     537.9786     0.984     0.825      4.345     137.4686  21.2231        153
