#   1 KRON_RADIUS            Kron apertures in units of A or B                         
#   2 Y_IMAGE                Object position along y                                    [pixel]
#   3 MAG_BEST               Best of MAG_AUTO and MAG_ISOCOR                            [mag]
#   4 FLUX_BEST              Best of FLUX_AUTO and FLUX_ISOCOR                          [count]
#   5 X_IMAGE                Object position along x                                    [pixel]
#   6 THETA_IMAGE            Position angle (CCW/x)                                     [deg]
#   7 A_IMAGE                Profile RMS along major axis                               [pixel]
#   8 B_IMAGE                Profile RMS along minor axis                               [pixel]
#   9 MAGERR_BEST            RMS error for MAG_BEST                                     [mag]
#  10 NUMBER                 Running object number                                     
#  11 FLUXERR_BEST           RMS error for BEST flux                                    [count]
 3.50     59.9924  16.4402     44045.44   1078.7397 -76.37     3.031     3.004   0.0024          1     97.26984
 3.80     53.4462  16.5495     39827.46     63.9191   1.33     5.337     4.876   0.0049          2     178.1201
 4.08     16.9284  18.8069     4980.174    985.4626 -87.34     4.427     2.434   0.0267          3     122.5328
 3.50     18.2198  19.1885     3504.362     91.5117 -89.07     2.184     2.115   0.0211          4     68.09087
 3.54     14.9005  18.1096     9465.657   1446.0903 -42.62     2.591     2.467   0.0094          5     82.25485
 7.64      7.3019  24.7363     21.15771   1466.3320 -43.43     0.563     0.340   1.5766          6     30.71558
 6.30      5.0665  22.1270      234.002    144.8630 -83.55     0.803     0.681   0.1987          7     42.81334
 0.00      4.0000  99.0000    -37.86011   1580.0042   0.00     0.836     0.289  99.0000          8     39.87959
 6.13     25.1073  21.9150      284.433    367.6415  26.07     1.770     1.749   0.3798          9     99.46211
 8.11     17.1742  22.1947     219.8549    385.0853 -33.22     1.396     0.608   0.3383         10      68.4856
 6.87     34.8679  21.4183     449.4502   1109.8555  64.00     1.403     0.661   0.1463         11     60.54721
 3.50     80.3080  16.4872     42181.76    537.8432 -75.16     2.975     2.935   0.0025         12     95.31025
 7.99     37.7023  22.7106     136.6925   1521.1277  69.14     0.976     0.690   0.4721         13     59.42379
 9.43     38.5241  21.9451     276.6749   1170.4841  44.19     0.505     0.494   0.1705         14     43.43839
 6.75     42.1870  21.8532     301.0994    915.0546  36.06     0.940     0.466   0.1486         15     41.20927
 5.41     44.2103  25.4027     11.45264    564.4238  70.29     0.750     0.451   2.7850         16     29.36971
 4.55     75.2320  20.1186     1487.801    128.0788  -2.01     2.038     1.769   0.0585         17     80.09643
 3.50    121.9991  16.0433     63484.57    789.4222 -43.33     3.091     2.991   0.0017         18     97.82252
 8.23     80.6874  20.7778     810.7452    422.8605 -69.48     1.831     0.584   0.1043         19      77.8782
 6.64     90.7543  20.2182     1357.496    377.0980  89.81     2.137     1.683   0.0926         20     115.7452
 4.32     96.7815  19.7807     2031.025     56.4105 -47.91     2.142     1.995   0.0440         21     82.25485
 6.56     97.9843  20.3404     1212.896    453.0412 -10.20     2.000     0.927   0.0734         22     81.92649
 3.92    170.5607  18.2818     8077.531    877.5997 -21.37     2.596     2.542   0.0125         23     92.72994
 3.50    162.5962  16.6799     35323.06   1468.6017 -50.03     2.946     2.848   0.0029         24     93.59795
 0.00    131.7585  99.0000    -79.31616   1511.9980  -0.09     0.691     0.428  99.0000         25     23.21879
 6.88    165.6576  21.4569     433.7522   1446.0773 -42.49     1.415     1.198   0.2059         26     82.25485
 4.86    166.8479  21.5703     390.7188    104.9452 -84.09     1.507     1.343   0.1785         27     64.22001
 0.00    159.3233  99.0000    -9.233032    537.6866  45.51     0.564     0.340  99.0000         28     23.79218
 6.12    192.8279  19.9416     1751.372   1350.5502 -33.77     2.922     1.450   0.0721         29       116.21
 4.93    211.0075  18.8549     4764.729    827.9856  -4.47     4.185     2.622   0.0342         30     149.9366
 4.53    206.7366  20.0848     1534.928    549.4040 -48.40     2.105     1.879   0.0585         31     82.74496
 4.65    212.5211  19.9864     1680.436   1306.4330 -68.02     2.091     1.821   0.0541         32     83.71655
 5.26    230.1405  19.0358     4033.544    562.5012 -37.69     3.810     3.392   0.0467         33     173.5207
 3.50    260.0289  15.3634     118750.2    997.7187 -31.72     3.179     3.090   0.0009         34     100.8081
 6.95    210.9013  20.8141     784.0747    684.3038 -59.47     1.540     1.020   0.1109         35     80.09643
 4.23    224.0483  19.9489     1739.549   1226.2903 -22.70     2.031     1.927   0.0482         36     77.18285
 5.35    222.7530  21.3365     484.5964    775.3895 -54.77     1.809     1.449   0.1776         37     79.25061
 3.50    266.0527  15.7816      80792.2     67.7354 -43.79     3.128     3.024   0.0013         38     98.64572
 5.83    243.7050  20.0609     1569.035    113.0363 -77.12     2.694     1.956   0.0853         39      123.191
 4.54    255.5920  19.2180     3410.408    613.4211 -37.77     2.987     2.534   0.0366         40     115.0444
 7.03    239.4051  21.2029     548.0938    838.6548 -80.25     1.643     0.860   0.1515         41     76.48117
 7.81    229.6943  24.0759     38.87305    538.6589 -43.29     0.568     0.338   0.9058         42     32.42328
 3.50    287.9388  17.3791     18550.53   1486.5565 -29.06     3.092     2.733   0.0055         43     93.16496
 8.22    252.1398  22.3330     193.5546   1374.1748   9.82     0.995     0.700   0.1875         44     33.41645
 3.50    282.1220  19.1055     3782.759   1522.4805 -44.20     2.397     2.330   0.0219         45     76.12791
 3.50    303.2986  17.6790     14073.04    201.9460  81.55     2.725     2.685   0.0067         46     87.03177
 3.50    322.3131  18.1541     9085.709    697.5564  78.99     2.545     2.526   0.0098         47     81.92649
 5.03    302.6460  21.0162     650.8925    563.9017  -9.44     1.653     1.383   0.1172         48     70.23445
 8.03    308.3838  21.0591     625.6671     86.2233  87.87     1.279     0.996   0.1448         49     83.39394
 5.57    327.8480  19.7981     1998.715    595.7647 -36.72     2.312     2.177   0.0624         50     114.9272
 7.03    323.0115  20.7858     804.7506    640.0058  80.26     1.572     1.066   0.1125         51     83.39394
 7.64    321.4944  21.0172      650.303    643.4767  53.38     1.782     0.813   0.1406         52     84.19815
 7.19    331.8544  22.0254     256.9546     93.1126  72.97     1.157     0.864   0.2827         53      66.8927
 3.68    368.6599  18.0648     9865.021    760.9850 -48.41     3.231     2.593   0.0108         54     98.23499
 7.54    329.5132  21.9612     272.6075   1546.5171  -0.14     1.089     0.500   0.2058         55     51.65855
 5.33    349.9267  20.5331     1015.684     54.7275 -33.05     1.707     1.422   0.0816         56     76.30474
 3.50    395.3920  16.3775     46666.97    231.5977 -62.82     3.044     2.975   0.0022         57     96.43489
 4.56    361.4849  20.0008     1658.439   1500.6577 -19.23     2.058     1.899   0.0543         58     82.90768
 5.61    361.1364  23.2327     84.51526   1034.1522  63.29     1.356     0.944   0.7429         59     57.81433
 5.56    381.1993  21.1694     565.2267      1.9191  89.92     2.451     0.904   0.1185         60     61.65016
 3.84    398.3579  18.3848     7346.714    354.7344  68.09     2.588     2.567   0.0135         61     91.55981
 6.97    372.0318  21.7968     317.1671     70.7653 -55.38     1.399     0.754   0.2256         62     65.87757
 3.71    397.4172  18.5409     6362.619   1461.3718 -31.96     2.578     2.377   0.0145         63       84.677
 6.46    370.0135  22.4863      168.069    209.0098  -0.68     0.615     0.606   0.2250         64     34.82819
 8.07    372.8885  22.4699     170.6304   1084.1633 -12.06     1.030     0.665   0.3910         65     61.43116
 3.69    393.9711  20.2844     1277.151   1088.8983 -52.38     1.986     1.909   0.0569         66      66.8927
 5.12    412.5886  20.5837     969.4133      2.3713  89.00     3.544     1.277   0.0921         67     82.25485
 7.20    382.3391  21.6354     367.9934     67.3483 -45.00     1.110     0.654   0.1664         68     56.39825
 7.63    383.7711  21.4070     454.1549      9.8582  11.59     1.358     0.557   0.0802         69      33.5569
 7.89    397.2686  20.9115     716.8153    626.1052 -77.88     1.385     0.808   0.1159         70     76.48117
 3.50    461.3334  15.2446     132479.4    807.6801 -42.64     3.187     3.087   0.0008         71     101.2084
 3.50    438.1793  17.5909     15262.48    252.3251  -7.72     2.790     2.705   0.0063         72     88.87067
 6.42    420.9557  20.4610     1085.453    159.3079  43.28     2.158     1.705   0.1132         73     113.1544
 5.26    433.0997  20.3695     1180.875   1422.1903  69.41     1.817     1.717   0.0782         74     84.99474
 4.99    426.9867  20.1975     1383.569    433.6164   1.79     3.411     1.099   0.0742         75     94.54636
 4.50    450.5894  18.7995     5014.045     21.4207  29.10     2.486     2.460   0.0222         76     102.2682
 5.83    426.7534  21.7884     319.6385   1180.0170  34.23     1.461     0.792   0.1964         77     57.81433
 4.89    468.0778  18.4308     7041.447    851.1030  23.78     7.174     2.586   0.0300         78      194.193
 6.88    434.3987  21.2188     540.1171    150.7365   5.03     1.835     1.044   0.1765         79     87.80266
 8.49    431.0078  21.1227     590.0995    720.1688  54.18     0.930     0.469   0.0936         80     50.86983
 6.20    444.9543  20.6055     950.1339    122.5157  59.23     1.881     1.549   0.1115         81     97.54657
 4.06    457.9190  18.7288     5351.315     34.5368 -17.68     2.654     2.427   0.0193         82     94.88507
 5.35    440.3495  21.4343     442.8695    305.9942   4.56     1.300     1.116   0.1446         83     58.96842
 4.37    463.9705  19.7797     2032.947    468.8617  48.26     2.242     1.895   0.0442         84     82.74496
 6.00    461.4203  21.2661       517.08   1096.9910  70.01     1.411     1.077   0.1418         85     67.49445
 3.50    478.1529  19.4498     2754.654    923.1714 -42.87     2.291     2.063   0.0275         86     69.65638
 5.14    471.5919  20.0528     1580.809    254.7253   9.05     1.979     1.869   0.0624         87     90.82081
 3.64    472.2752  19.6347      2323.39    735.0544  13.65     2.058     1.946   0.0315         88     67.49445
 3.98    596.9883  18.5057     6572.164    782.9264 -87.77     3.616     3.454   0.0213         89     128.8591
 4.16    478.5011  20.8912     730.3219   1277.1141 -65.74     2.062     1.725   0.1073         90     72.12791
 7.44    462.3968  21.5634     393.2169    722.7953 -12.80     1.120     0.417   0.1291         91     46.72692
 6.02    495.6913  19.7643     2061.949     82.7940 -76.01     2.776     2.530   0.0774         92     146.9403
 4.67    495.7672  19.7841     2024.702   1186.4735 -12.09     3.112     2.310   0.0616         93     114.8098
 3.94    483.9861  20.4332     1113.535   1070.6869 -32.19     1.909     1.620   0.0618         94     63.37497
 4.24    531.0347  17.6635     14275.69    519.8568  20.40     5.170     3.237   0.0097         95     127.6724
 7.00    489.6824  21.0333     640.7539    839.3367  48.22     1.546     1.140   0.1446         96     85.31129
 4.65    502.2025  21.1727     563.5355    863.7805 -39.11     1.826     1.368   0.1297         97     67.29446
 5.50    504.4208  20.3676     1182.957    763.4030 -17.69     2.418     1.450   0.0871         98     94.88507
 4.49    515.7132  19.2835     3210.739   1461.0072  21.96     4.042     2.029   0.0401         99     118.6205
 8.23    499.3254  22.3213     195.6438    366.3373 -44.47     0.576     0.334   0.1868        100     33.64723
 8.51    509.5540  20.9801     672.9248    166.5013  80.85     1.056     0.943   0.1265        101     78.39567
 6.68    509.5143  21.7708     324.8398    454.2384 -89.83     0.978     0.719   0.1718        102     51.39699
 6.17    513.6793  20.8154     783.1758   1179.5035   5.85     1.540     1.120   0.1031        103     74.33641
 6.30    518.5699  21.3692     470.2314    642.8600 -29.67     1.255     0.759   0.1319        104     57.11068
 3.50    540.5333  20.1614     1430.292   1000.0637 -45.72     2.173     1.750   0.0478        105      62.9482
 8.72    536.4772  22.2291     212.9926    402.4882 -37.02     0.500     0.499   0.2051        106     40.21613
 3.52    559.1711  19.7682     2054.487   1041.8424 -30.51     2.139     1.954   0.0350        107     66.28549
 3.83    580.9929  18.1362     9236.795    145.0090 -71.13     2.633     2.498   0.0106        108     90.22526
 3.59    582.3879  18.1747     8915.221    319.3510 -38.63     2.654     2.520   0.0104        109     85.15317
 4.74    571.4081  20.1268     1476.693     45.8489  54.95     2.361     1.903   0.0680        110      92.4388
 0.00    550.7809  99.0000    -22.49915    143.9820  -0.87     0.655     0.414  99.0000        111     20.76752
 4.62    571.8522  19.9315     1767.727   1447.7355  40.12     2.427     1.906   0.0562        112     91.41248
 8.47    565.4220  20.5732     978.8959    139.1938 -84.40     1.745     0.805   0.1026        113      92.4388
 5.78    577.0038  21.8667     297.3741   1002.5832  -1.68     1.329     1.013   0.2251        114     61.65016
 4.94    584.7218  21.4803     424.4972     75.8023  73.68     1.554     1.136   0.1532        115     59.87568
 6.83    986.9518  19.7942     2005.998    454.2726  73.36     2.267     1.946   0.0717        116     132.3675
 4.97   1598.8541  21.3757     467.4399    654.9175 -26.99     1.750     1.035   0.0877        117     37.76691
 5.87   1595.9941  20.3204     1235.495    652.7838 -22.74     1.121     0.683   0.0419        118      47.6438
 4.43   1599.4045  22.0854     243.1315     20.3169 -17.39     1.692     0.641   0.1590        119     35.59374
 7.59   1594.4321  21.5201     409.2307    374.4944 -88.56     1.109     0.499   0.1343        120     50.60419
 8.91   1594.3894  23.1830     88.47095   1387.1508  19.77     0.757     0.441   0.5841        121     47.58437
 4.10   1584.9974  20.7019     869.4384   1108.8923  -5.70     1.845     1.581   0.0807        122     64.63839
 4.99   1585.4872  22.8000     125.8978   1068.7310  53.74     1.360     0.225   0.2194        123     25.43491
 3.50   1566.8105  19.8637     1881.604     22.0706  39.44     2.151     1.984   0.0384        124     66.48851
 3.54   1565.8353  20.2412     1328.984    784.5983  73.81     2.207     1.782   0.0526        125     64.42953
 3.50   1558.1235  16.1975     55078.45    487.7611 -84.10     2.956     2.930   0.0019        126     95.16874
 3.50   1552.8146  17.2155     21566.67    682.2030 -28.15     4.833     4.349   0.0074        127     147.9458
 7.93    869.6841  22.5306     161.3499    642.6815 -44.87     0.563     0.341   0.2154        128      32.0049
 6.42    858.8502  21.2244     537.3192   1339.7490 -54.85     1.522     1.265   0.0975        129     48.24961
 5.78    845.3093  21.2167      541.161   1064.6372   4.64     1.337     1.276   0.1390        130     69.26832
 5.35    843.6138  20.4447      1101.88   1106.4128  28.43     1.837     1.523   0.0807        131     81.92649
 4.79    836.8301  20.0998     1513.879    298.9754 -57.04     2.095     1.693   0.0594        132     82.74496
 8.05    837.6497  23.1772     88.94873   1521.6752 -46.05     0.581     0.331   0.4108        133     33.64723
 6.16    836.1196  22.3322     193.6869    819.3091 -20.89     0.916     0.679   0.2521        134       44.963
 3.50    823.2621  18.6262     5882.182    654.5389 -44.83     2.487     2.416   0.0146        135     79.25061
 3.50    803.3782  18.7393     5299.969   1378.7463 -35.98     2.435     2.303   0.0157        136     76.48117
 3.50    798.7995  17.5429     15953.14    695.8089 -82.98     3.169     2.692   0.0064        137     94.02895
 4.08    800.9242  19.5541     2502.343     41.2277 -36.88     2.357     2.166   0.0367        138       84.677
 0.00    797.7188  99.0000    -12.16394   1544.2725 -69.71     0.853     0.355  99.0000        139     27.95913
 3.50    774.7054  19.5841     2434.247   1427.5822  88.77     2.779     2.434   0.0374        140     83.87739
 6.60    767.9084  22.0566     249.6702    142.2739  -7.26     1.059     0.677   0.2258        141      51.9188
 8.07    757.6758  22.9714     107.5028   1342.3064  45.95     0.561     0.341   0.3358        142     33.24426
 4.68    742.8165  20.1499     1445.581    556.4481  37.00     1.973     1.809   0.0615        143     81.92649
 6.22    737.9290  21.7003      346.647   1158.6479 -60.24     1.599     1.112   0.2407        144     76.83281
 3.50    726.8715  16.0432      63492.1    848.5637 -46.77     3.084     2.997   0.0017        145     98.23499
 5.03    736.1727  20.9972     662.3953    650.0113 -61.01     1.476     1.207   0.1014        146     61.86839
 4.27    727.8571  20.7288     848.1946   1178.2950  -1.38     1.918     1.742   0.0921        147      71.9408
 7.32    723.0043  22.1802     222.7941   1395.6740 -15.87     1.218     0.677   0.2994        148     61.43116
 3.50    715.9310  20.4481     1098.353    808.4232   3.82     1.831     1.767   0.0576        149     58.27871
 3.71    709.0450  20.3698       1180.5   1164.1002 -19.42     1.930     1.627   0.0553        150     60.10036
 3.89    704.8819  20.2861     1275.181   1339.0087 -17.61     2.022     1.783   0.0560        151     65.80779
 4.09    703.0588  19.7442      2100.51    952.6016 -17.93     2.164     2.110   0.0415        152     80.26452
 6.60    698.4171  20.9600     685.4882    583.4592  16.60     1.674     1.410   0.1478        153     93.30951
 6.11    691.0156  21.1232     589.8008   1214.0000 -64.82     1.742     1.438   0.1645        154     89.32449
 6.27    687.3191  21.2385     530.3847   1214.3245 -19.51     1.893     1.111   0.1041        155     50.83773
 8.75    687.4052  22.4368     175.9133    132.1882  19.49     0.759     0.446   0.2938        156     47.58437
 3.91    685.7895  19.8598     1888.389    644.3520 -76.66     2.205     2.099   0.0443        157     77.00803
 3.50    648.6792  16.0663     62157.25   1464.4430 -41.35     3.031     2.933   0.0017        158     95.87422
 4.47    654.8028  21.2661      517.092    871.6137  16.84     1.473     1.161   0.1128        159     53.70523
 7.38    644.9847  21.2347     532.2334    653.9760  45.88     0.902     0.526   0.0977        160     47.86677
 3.90    630.8015  21.2679     516.2344    806.2888  -7.27     1.543     1.099   0.0989        161     47.01447
 3.65    623.5600  20.9088     718.6132   1581.1151   6.85     1.716     1.666   0.0863        162     57.11068
 9.29    618.5418  22.1512     228.8352   1151.5134 -42.70     0.509     0.489   0.2032        163     42.81334
 5.15    912.7505  21.4148     450.8877   1000.7191 -10.53     1.167     0.712   0.1031        164     42.81334
 7.90   1550.8585  22.2523     208.4932   1221.9042 -43.50     0.840     0.673   0.2836        165      54.4529
 3.50   1541.9684  19.2791     3223.716    134.9627 -88.98     2.309     2.183   0.0244        166     72.50066
 3.50   1570.5266  20.1647     1425.984     92.6435 -55.10     1.908     1.798   0.0453        167     59.42379
 3.50   1563.8154  16.1938      55268.2    304.2059 -48.02     3.028     2.968   0.0019        168     97.26984
 9.33   1536.9894  22.4537     173.1913   1428.7147 -86.80     0.740     0.689   0.3811        169      60.7694
