#   1 KRON_RADIUS            Kron apertures in units of A or B                         
#   2 MAGERR_APER            RMS error vector for fixed aperture mag.                   [mag]
#   3 Y_IMAGE                Object position along y                                    [pixel]
#   4 X_IMAGE                Object position along x                                    [pixel]
#   5 THETA_IMAGE            Position angle (CCW/x)                                     [deg]
#   6 FLUX_APER              Flux vector within fixed circular aperture(s)              [count]
#   7 A_IMAGE                Profile RMS along major axis                               [pixel]
#   8 B_IMAGE                Profile RMS along minor axis                               [pixel]
#   9 FLUX_RADIUS            Fraction-of-light radii                                    [pixel]
#  10 FLUXERR_APER           RMS error vector for aperture flux(es)                     [count]
#  11 MAG_APER               Fixed aperture magnitude vector                            [mag]
#  12 NUMBER                 Running object number                                     
 3.91   0.0028     54.0677     63.6173  -6.96     29801.07     4.659     4.453      8.528     77.31852  16.8644          1
 3.72   0.0167     17.3630    984.8641 -88.08     5014.825     3.946     1.796      5.958     77.29229  18.7994          2
 3.50   0.0212     18.7792     91.0173 -64.27     3967.152     1.540     1.446      2.702     77.29229  19.0538          3
 3.50   0.0082     15.4457   1445.5848 -51.57     10198.58     1.657     1.523      2.648     77.30103  18.0287          4
 6.01   0.8058      7.9059   1469.7231 -62.96     104.0979     0.891     0.213      1.501      77.2398  23.0064          5
 3.50   2.6550      4.5543    960.5181  67.74     28.64675     1.221     0.204      1.106     70.03381  24.4073          6
 6.21   0.8934      5.0201     54.9799 -45.00     87.06423     1.229     0.289      4.260     71.62754  23.2004          7
 6.28   0.2071      4.2469    145.0632 -10.48     362.0233     1.031     0.624      2.793     69.03252  21.6532          8
 6.73   0.9601     10.5274   1183.3799  16.77     87.47643     0.842     0.456      2.122       77.336  23.1953          9
 5.10   0.2360     18.1513    384.1560  42.53     355.8275     0.978     0.838      2.126     77.30978  21.6719         10
 7.27   0.2278     24.4483    383.4137 -78.66     368.5544     1.489     0.404      4.469     77.31852  21.6337         11
 3.54   0.1010     25.4016    367.1154 -13.70     831.3331     1.355     1.112      2.585     77.28354  20.7506         12
 3.50   0.0017     60.5800   1078.2439  79.77     47984.79     1.941     1.807      2.789     77.30978  16.3472         13
 7.07   2.4447     27.9201   1357.2933  87.28     34.30769     0.837     0.454      4.276     77.23104  24.2115         14
 4.30   0.7008     31.3549   1108.9028  74.59     119.6736     0.853     0.705      1.853     77.22229  22.8550         15
 7.23   0.1732     34.4379    326.1240 -84.99     484.5519     1.041     0.952      4.488      77.2748  21.3366         16
 6.89   0.2785     35.2360   1110.4044 -67.05     301.4163     0.946     0.850      3.260     77.30103  21.8521         17
 4.25   0.4428     39.8006   1170.7745 -35.98     189.5041     1.362     0.566      2.180      77.2748  22.3560         18
 3.56   0.7632     38.8175   1521.2511  34.17     109.9872     1.138     0.596      1.675     77.29229  22.9466         19
 3.50   0.4554     36.6734    334.0000 -28.22     184.4508     0.910     0.211      1.462     77.34474  22.3853         20
 3.50  99.0000     40.3349   1225.9261 -49.54    -64.84864     1.033     0.301      1.587     77.23104  99.0000         21
 4.30   0.3344     43.2110    915.4620 -36.27      251.148     1.110     0.691      2.201     77.32726  22.0502         22
 3.50   0.0018     80.9682    537.4006 -63.20     45769.65     1.863     1.768      2.723     77.28354  16.3986         23
 7.59   0.3893     44.8832    441.2554  63.30     214.2557     0.870     0.216      1.891     76.80098  22.2227         24
 8.18   0.1237     43.3649     46.9432 -28.76     678.8306     0.927     0.207      2.548     77.30978  20.9706         25
 3.50   0.7070     47.1420    473.7140  63.43     118.5973     0.926     0.202      1.288     77.20478  22.8648         26
 7.45   0.0959     47.3210     47.5862  42.35     851.4999     0.603     0.311      2.250     75.15508  20.7245         27
 6.65   0.2090     47.3485     29.0000   0.00     401.9718     0.807     0.477      2.599     77.34474  21.5395         28
 6.87   0.3607     48.2545    440.0000   0.00     232.8883     0.713     0.436      1.895     77.34474  22.1321         29
 6.12   0.7632     51.0359   1435.1760 -34.24     109.9903     0.783     0.497      2.313     77.29229  22.9466         30
 7.31   0.6352     52.3333    266.6667  45.00     132.0515     0.577     0.333      2.409      77.2398  22.7481         31
 3.92   0.0526     75.8943    127.6811 -33.15     1594.054     1.254     1.163      2.297      77.2398  20.0437         32
 5.20   1.7922     72.8091    953.8091  45.00     46.81573     1.181     0.289      2.173     77.25729  23.8740         33
 3.95   0.1027     92.0417    377.0394 -77.59     817.4232     1.893     1.601      3.583     77.31852  20.7689         34
 5.44   0.2714     82.9583    421.5509 -54.03     309.3445     1.270     0.623      2.658     77.31852  21.8239         35
 3.50   0.0012    122.5924    788.9217 -59.46     67921.69     1.960     1.816      2.746     77.30978  15.9700         36
 5.77   6.5739     83.6666    179.0219  27.82     12.77154     0.932     0.206      1.434     77.30978  25.2844         37
 3.67   0.0359     97.3299     56.0065 -20.83     2329.694     1.351     1.269      2.467     77.07334  19.6318         38
 8.46   0.4663     92.1014    495.2714 -63.06     179.9252     0.886     0.214      2.120     77.24855  22.4123         39
 8.60   0.7239     94.3854     89.6815  47.31     115.9842     0.592     0.322      2.778     77.30978  22.8890         40
 6.54   0.1513     99.1556    452.2040 -33.17     555.0507     1.373     0.783      5.004     77.32726  21.1892         41
 3.50   1.7313    107.9520    185.3654 -61.41     48.49459     0.933     0.206      1.306     77.30978  23.8358         42
 7.17   0.3651    114.0206    270.3127 -89.22     229.9112     0.829     0.463      2.289     77.29229  22.1461         43
 7.21   0.3006    118.0000     66.5485  57.15     279.4266     0.773     0.319      2.384     77.34474  21.9343         44
 3.50   0.0022    163.1416   1468.1309 -54.85      38441.4     1.857     1.772      2.706     77.26604  16.5880         45
 7.53   0.4288    132.0424    418.9576  45.00     195.7573     1.201     0.289      1.995     77.29229  22.3207         46
 3.50   2.2470    131.3821     62.3194 -47.19     37.36934     0.591     0.323      0.872     77.31852  24.1187         47
 3.50   2.5706    141.0000    178.9659   0.00     32.64599     0.878     0.289      1.039      77.2748  24.2654         48
 3.50   0.0097    171.1748    877.1526  75.95      8694.56     1.555     1.507      2.617     77.32726  18.2019         49
 7.08   0.7006    152.3333   1279.3936 -43.21     119.8736     0.602     0.315      1.956       77.336  22.8532         50
 3.89   0.1282    165.8038   1445.6473   5.08     655.3568     1.275     0.973      2.348       77.336  21.0088         51
 3.50  99.0000    163.1070    126.3048 -63.08    -65.00715     0.936     0.201      1.117     77.03825  99.0000         52
 6.79   0.6621    163.9584    629.0416  45.00     126.7919     1.223     0.289      1.617     77.30103  22.7923         53
 3.94   0.1531    167.4873    104.0908 -30.29     547.6258     1.111     0.868      2.206     77.22229  21.2038         54
 3.50   0.4785    170.9897   1368.0988 -45.99     175.3592     1.302     0.607      1.984     77.25729  22.4402         55
 6.94   0.5206    169.0000    651.7692 -90.00     161.1841     0.679     0.421      2.262      77.2748  22.5317         56
 5.07   0.2836    181.0743    574.6081  50.74     296.0986     1.295     0.874      3.169     77.31852  21.8714         57
 7.51   0.1887    187.0535   1354.2334  56.76      445.006     1.421     0.779      4.119     77.31852  21.4291         58
 4.23   0.0924    193.5168   1350.4445 -41.46     908.3018     1.303     0.927      2.304     77.26604  20.6544         59
 3.96   0.0228    211.6080    827.3951  -9.36     3676.972     3.727     1.897      6.289      77.2748  19.1363         60
 3.57   0.0490    207.4825    548.8376 -64.15     1713.006     1.395     1.179      2.592     77.28354  19.9656         61
 4.31   0.0263    230.9999    562.1114 -29.05     3186.108     3.227     2.771      6.904      77.2748  19.2918         62
 3.50   0.1698    211.3650    684.4688  86.20     494.3883     1.579     1.065      3.159     77.30103  21.3148         63
 3.50   0.0536    213.0156   1305.8960  64.25     1566.734     1.264     1.115      2.372     77.28354  20.0625         64
 6.31   0.4722    205.8939    937.1061 -45.00     177.5643     1.210     0.289      1.934     77.20478  22.4266         65
 3.69   0.0390    224.5114   1225.8744 -77.81     2149.993     1.414     1.210      2.551     77.22229  19.7189         66
 6.59   0.2966    219.0222    740.5000 -56.89     282.7733     1.456     0.611      3.234     77.23104  21.9214         67
 3.50  99.0000    211.5957    608.7021 -48.75    -61.87821     0.589     0.322      0.920      77.2748  99.0000         68
 3.50   0.0008    260.5684    997.2297 -57.06     102949.8     1.967     1.850      2.736     77.31852  15.5184         69
 3.90   0.1477    223.1899    774.7099 -28.21     568.0521     1.146     0.906      2.065      77.2748  21.1640         70
 3.50   0.0010    266.6972     67.3778 -75.78     86994.83     1.967     1.876      2.700     77.25729  15.7013         71
 4.10   0.0607    244.3300    112.7148  74.17     1381.888     2.024     1.468      3.867      77.2398  20.1988         72
 3.77   7.4919    224.4766     84.0624 -32.38     11.19771     0.789     0.315      1.129     77.24855  25.4272         73
 4.53   0.3737    232.0000     20.0350   0.00     224.5251     0.831     0.289      1.421     77.25729  22.1718         74
 4.57   0.0242    256.4006    612.6793 -30.02     3469.489     2.266     1.670      4.620     77.30978  19.1993         75
 5.77   0.1768    239.8354    838.3702 -20.32      474.887     1.451     0.794      3.340     77.30103  21.3585         76
 6.28   0.1333    250.8140    107.8768 -74.34     627.3526     1.569     1.055      4.855     77.02948  21.0562         77
 6.44   2.3751    240.3460   1478.8618 -47.85     35.32941     1.076     0.282      1.823     77.26604  24.1797         78
 6.23   0.1580    253.0185   1372.5364  88.54     528.3326     0.934     0.498      2.613     76.87136  21.2427         79
 4.67   1.9277    254.2936   1352.3809  21.45     43.29136     0.819     0.369      1.612     76.84498  23.9590         80
 3.50   0.0041    288.3638   1486.2595 -50.05     20315.03     1.730     1.592      2.659     77.30103  17.2805         81
 5.52   0.2447    261.3333     84.2923 -47.25     342.8374     0.559     0.342      1.088     77.25729  21.7123         82
 5.66   0.2117    270.6717   1273.9197 -40.63      396.329     1.404     1.013      4.217     77.24855  21.5549         83
 3.50   0.0197    282.7120   1522.1971 -53.12     4264.911     1.396     1.295      2.414      77.2748  18.9752         84
 3.50   0.0056    303.9742    201.5955 -67.73     15039.83     1.660     1.554      2.585     77.29229  17.6069         85
 5.43   0.1628    294.2861   1475.5723 -56.07     512.6982     1.236     0.945      3.180     76.84498  21.2753         86
 3.70   0.1370    302.6453    563.4780  78.24     612.3549     1.226     1.002      2.691     77.25729  21.0825         87
 3.50   0.0085    322.8607    697.1563 -65.04     9853.705     1.561     1.501      2.566     77.30103  18.0660         88
 6.97   0.2201    308.2586     85.3358  -9.79     381.2795     1.278     0.681      3.203     77.25729  21.5969         89
 7.68   0.1821    312.6170     85.1514 -79.80     460.9541     0.987     0.661      4.615     77.30103  21.3909         90
 3.50   0.1078    322.0946    641.3367 -62.75     778.4717     2.440     1.055      3.800     77.26604  20.8219         91
 4.66   0.0490    328.1743    595.2106  73.06     1713.239     1.457     1.437      3.491     77.28354  19.9655         92
 3.50   1.1621    313.9999    326.0000  90.00     72.24405     0.857     0.289      1.224     77.30978  23.4030         93
 3.50  99.0000    331.2695    182.9999   0.00     -1.77549     0.855     0.444      1.171     77.32726  99.0000         94
 7.80   0.9942    318.3265    226.3265 -45.00     84.36995     0.571     0.337      2.416      77.2398  23.2345         95
 4.76   0.1969    332.9469     93.2881 -11.73     426.0161     1.125     0.860      2.491     77.23104  21.4764         96
 4.07   0.6029    330.2740   1545.6710 -32.70     139.1059     0.997     0.657      1.774     77.22229  22.6916         97
 3.50   1.1888    340.3112    179.6888  45.00     70.53114     0.558     0.343      1.008     77.20478  23.4290         98
 4.01   0.0969    350.8346     54.4693  76.80     866.1569     1.181     1.089      2.269     77.30103  20.7060         99
 3.50   0.0082    368.9971    760.8607 -60.62     10194.24     1.549     1.479      2.524     77.34474  18.0291        100
 7.01   0.4973    348.7852     42.1725 -15.91     168.8087     0.890     0.343      2.107     77.30103  22.4815        101
 3.50   0.0516    362.0011   1500.1412   8.08     1627.935     1.306     1.171      2.441     77.34474  20.0209        102
 3.50   0.0017    396.0186    231.2769 -59.08     50347.75     1.809     1.766      2.636       77.336  16.2950        103
 3.50   0.3524    361.2874   1033.8175 -47.29     236.8222     0.934     0.778      1.818     76.84498  22.1139        104
 3.50  99.0000    360.0423    151.0000  90.00    -108.9568     0.873     0.289      1.602     77.30978  99.0000        105
 6.26   0.4173    369.5384    210.7692  82.98     201.1254     1.089     0.403      1.978     77.29229  22.2913        106
 4.32   0.2686    374.3805   1083.7491 -45.06     312.5958     1.277     0.931      2.374     77.30978  21.8125        107
 6.15   0.1976    371.2109     71.1750  -9.51     422.4699     1.433     0.706      3.782     76.85377  21.4855        108
 6.63   0.1419    377.0762    754.1251  38.19     587.9675     1.702     0.884      4.497     76.80978  21.1266        109
 3.50   0.0124    397.8548   1460.9972 -66.60     6748.823     1.529     1.479      2.551     77.35348  18.4769        110
 7.51   0.1641    372.6167    752.9357  28.61     511.4281     0.945     0.202      2.178     77.30103  21.2780        111
 3.50   0.0103    399.0069    354.3420 -79.02     8159.721     1.576     1.453      2.535     77.34474  18.2708        112
 3.50   0.2884    376.6897     86.1697  25.53     290.9433     1.431     0.435      2.427     77.26604  21.8905        113
 5.34   0.8078    380.7073    126.0802  -7.83     103.8511     1.049     0.436      1.780     77.24855  23.0090        114
 3.50   0.0533    394.4662   1088.6558 -38.71     1574.386     1.345     1.286      2.505     77.26604  20.0572        115
 3.50  99.0000    385.1066    218.2978 -86.25    -34.71987     0.832     0.455      0.920     76.97681  99.0000        116
 5.17   1.0238    389.7467   1195.3679 -81.63      82.0133     1.180     0.455      1.585     77.31852  23.2653        117
 6.94   0.6820    390.3333    260.3925 -43.23     123.1521     0.601     0.315      1.878       77.336  22.8239        118
 6.05   0.1409    397.9496    626.5803  25.15      595.759     1.467     0.519      2.789     77.30978  21.1123        119
 6.16   0.4144    407.3262    281.8120  86.11     202.6701     1.028     0.385      2.370       77.336  22.2830        120
 8.37   0.2166    404.5683    526.5000   0.00      387.063     0.500     0.495      3.000     77.21354  21.5805        121
 6.11  99.0000    408.9999    699.4050  89.99    -106.0027     0.771     0.491      2.493     77.25729  99.0000        122
 3.50   0.0051    438.7710    251.9372 -58.75     16345.37     1.695     1.560      2.589     77.29229  17.5165        123
 3.50   0.0006    461.8542    807.3655 -53.73     142830.1     1.998     1.892      2.709     77.29229  15.1629        124
 4.52   0.0994    421.7829    158.7665  48.54     844.6551     1.506     1.389      3.469     77.30103  20.7333        125
 8.33   0.1461    412.2601      1.3008  69.98     426.3074     0.906     0.359      4.113     57.33977  21.4757        126
 6.36   1.5814    412.6538    198.9613  28.69     53.07922     0.914     0.210      1.054     77.29229  23.7377        127
 6.85   0.5077    415.6755    558.2351  47.73     165.3097     1.077     0.348      2.492      77.2748  22.5043        128
 7.88   2.3708    415.3739   1561.3536 -45.60     35.42177     0.603     0.315      2.488     77.32726  24.1768        129
 6.06   0.4106    419.4582   1204.6603 -19.80     204.3415     1.038     0.707      3.006     77.25729  22.2741        130
 5.49   0.1863    427.7241   1179.3151  16.88     450.2653     1.365     0.886      2.816     77.23104  21.4163        131
 6.73   0.1974    420.6666    133.9999  28.16     425.3388     0.919     0.209      2.512     77.32726  21.4782        132
 3.50   0.0769    433.7999   1421.7810  -3.23     1091.985     1.400     1.147      2.494     77.29229  20.4545        133
 5.78   0.2139    431.7544    717.7675  83.83     390.4518     1.303     1.115      4.125     76.88895  21.5711        134
 5.67   0.1136    426.3399    433.8217  -0.65     738.9997     1.618     0.697      4.501     77.31852  20.8784        135
 7.70   1.9527    425.2681   1064.0602 -27.55     42.96769     0.861     0.219      1.688     77.25729  23.9671        136
 3.53   0.0159    451.1560     21.1324 -40.41     5284.816     1.586     1.454      2.606      77.2748  18.7424        137
 5.33   0.1718    434.9251    151.0956  33.14     488.2047     1.042     0.753      2.353      77.2398  21.3285        138
 3.50   0.1791    440.7094    305.4552 -67.81     468.3487     1.234     0.946      2.139     77.24855  21.3736        139
 6.55  99.0000    436.3333    378.0375 -27.60    -89.89556     0.940     0.203      1.625     77.29229  99.0000        140
 4.61   0.0202    468.6138    850.4859  22.29     4158.292     6.918     1.705     11.037     77.29229  19.0027        141
 3.64   0.0144    458.6819     34.3852 -68.71     5812.006     1.504     1.362      2.523     77.30978  18.6392        142
 5.24   0.0998    446.1402    122.2485 -40.13     841.2847     1.535     0.986      3.128      77.2748  20.7376        143
 3.50   2.2669    444.3414     32.6586  45.00     37.01112     0.584     0.329      0.859     77.25729  24.1292        144
 7.72  99.0000    446.3051   1504.6737  43.88    -79.29729     0.562     0.341      2.075     77.24855  99.0000        145
 3.53   0.0468    464.6877    468.4340 -68.06     1793.858     1.453     1.345      2.706     77.28354  19.9155        146
 3.50   1.1122    453.9789    838.6877 -89.20      75.4742     0.829     0.463      1.186     77.29229  23.3555        147
 7.02   0.9724    453.8300   1533.0110   0.29     86.35494     0.711     0.376      1.965     77.31852  23.2093        148
 5.39   0.1856    461.9751   1096.1796 -25.46     452.2773     0.895     0.833      2.342     77.30103  21.4115        149
 4.28   0.0548    471.9928    254.1263 -68.26     1532.527     1.378     1.145      2.591     77.32726  20.0865        150
 4.00   0.0367    472.9767    734.7629 -49.28     2285.587     1.302     1.161      2.451     77.30103  19.6525        151
 3.50   0.0289    478.8103    922.8269 -42.14     2900.091     1.387     1.317      2.475     77.30103  19.3940        152
 6.40   0.2585    462.5494    724.5518 -15.89     324.8158     1.098     0.412      2.505     77.31852  21.7709        153
