#   1 KRON_RADIUS            Kron apertures in units of A or B                         
#   2 Y_IMAGE                Object position along y                                    [pixel]
#   3 MAG_BEST               Best of MAG_AUTO and MAG_ISOCOR                            [mag]
#   4 FLUX_BEST              Best of FLUX_AUTO and FLUX_ISOCOR                          [count]
#   5 X_IMAGE                Object position along x                                    [pixel]
#   6 THETA_IMAGE            Position angle (CCW/x)                                     [deg]
#   7 A_IMAGE                Profile RMS along major axis                               [pixel]
#   8 B_IMAGE                Profile RMS along minor axis                               [pixel]
#   9 MAGERR_BEST            RMS error for MAG_BEST                                     [mag]
#  10 NUMBER                 Running object number                                     
#  11 FLUXERR_BEST           RMS error for BEST flux                                    [count]
 3.50     30.1164  17.8923     11614.35    657.0477  73.64     1.724     1.669   0.0068          1     72.71211
 4.18     14.7657  18.1513      9149.43    661.1644 -73.80     3.278     2.949   0.0188          2     158.3234
 3.50     20.6302  15.6920      88125.7    837.4538 -18.43     1.968     1.874   0.0010          3     82.44778
 4.45     12.4910  19.8926     1840.284   1653.3259  10.54     1.509     1.350   0.0455          4     77.12284
 5.10     10.4390  20.6069      953.089   1721.7688  61.26     1.464     1.410   0.1009          5     88.52211
 5.32      6.1348  21.3727     470.7905   1801.2411   6.15     1.098     0.917   0.1520          6     65.90095
 6.82      3.4211  21.8971     290.4613    478.2751  57.56     0.955     0.547   0.2006          7     53.66148
 3.96      2.5429  21.4229      449.536   1942.3970  36.00     1.063     0.900   0.1050          8      43.4538
 6.27      3.2975  21.9759     270.1156   1695.1222 -27.07     0.858     0.605   0.2104          9      52.3253
 6.86      3.5096  22.0191     259.5739    567.0191  -3.13     0.776     0.499   0.2112         10     50.48875
 6.57     22.1657  21.3331     488.2999   1171.0249  18.75     1.287     0.869   0.1884         11     84.70705
 3.50     26.7447  21.6117     377.7833    780.9230  29.09     1.187     0.857   0.1233         12     42.90718
 3.50     36.8438  21.4764     427.9142    596.0016 -40.07     1.318     0.958   0.1208         13     47.60125
 3.50     39.2936  20.6919      881.395    404.6731  20.12     1.265     1.121   0.0634         14     51.41523
 5.80     33.9998  21.6664     359.2115   1584.7249 -13.29     1.468     0.557   0.1926         15     63.71577
 3.50     85.8547  16.1361     58541.63   1269.9762 -32.46     1.911     1.891   0.0015         16     81.58443
 7.32     51.6162  22.7753     129.3541    845.2280 -17.91     0.768     0.447   0.4393         17      52.3253
 4.10     58.2227  22.4616     172.6917   1402.5680 -69.38     0.750     0.448   0.1833         18     29.14969
 5.63     60.9814  21.5890     385.7476    649.4369   5.00     1.024     0.777   0.1730         19     61.45295
 3.50     74.4120  20.6602     907.4559     71.5008  58.09     1.279     1.234   0.0632         20     52.77445
 6.50     70.1390  21.8074     315.4662     64.1719 -45.43     0.831     0.660   0.2007         21     58.29939
 4.39     77.2234  21.1418     582.3693   1290.6321 -78.63     1.244     1.003   0.1110         22     59.50156
 5.26     76.9517  21.2797     512.8978   1001.5175  64.15     1.291     0.939   0.1476         23     69.72947
 6.68     71.8037  22.1075     239.2755    652.4154 -70.53     0.763     0.448   0.2183         24     48.09454
 3.77     82.6870  20.6746     895.5339    133.9682  31.72     1.507     1.137   0.0736         25     60.67992
 3.50     79.9842  21.2385     532.7295   1473.5616  31.92     1.548     1.032   0.1112         26     54.53408
 4.78     96.4296  19.3333     3080.418    772.3903 -80.16     2.120     1.936   0.0414         27     117.4057
 3.50     94.5454  19.7029     2191.624    251.7277 -26.42     1.899     1.702   0.0379         28      76.5083
 4.61     92.5731  20.9931     667.8483    948.5580  51.62     1.430     1.148   0.1177         29     72.38677
 3.50     96.4131  19.7360     2125.722    271.4473  33.63     1.493     1.361   0.0312         30     61.06766
 8.98     87.4975  22.2066     218.4159   2037.4921 -45.40     0.502     0.498   0.2646         31     53.21981
 4.05    108.9810  19.6192      2367.08   1127.0879   6.96     1.441     1.405   0.0320         32     69.72947
 3.50    116.6449  20.0662     1568.241    242.1315  69.61     2.145     1.787   0.0581         33     83.86695
 4.59    105.4231  21.1189     594.7469   1288.2830 -11.92     1.213     0.972   0.1108         34     60.67992
 5.82    103.0334  22.5291     162.2878    657.9792  84.03     0.615     0.610   0.2834         35     42.35352
 6.67    102.9928  21.6414     367.5714    570.9848  49.96     0.804     0.762   0.1915         36     64.81757
 5.82    108.8997  21.5963     383.1583   1649.9435  81.22     1.146     0.730   0.1878         37     66.25813
 4.67    110.5352  20.8533     759.6328    311.4669   3.46     1.650     1.055   0.1080         38     75.57713
 4.01    105.2929  22.9976     105.4048    441.3784 -41.39     0.577     0.331   0.2452         39     23.80062
 7.31    109.1258  21.6282     372.0851    972.8634  45.65     0.824     0.668   0.1955         40      66.9668
 4.86    119.3548  21.4654     432.2726    838.3733 -79.67     1.267     0.899   0.1573         41     62.59459
 4.94    120.3068  20.7454     838.9603   2000.0966  -2.21     1.831     1.086   0.1086         42     83.86695
 4.97    124.2795  20.8908     733.8123   1180.5775  39.60     1.506     1.117   0.1159         43     78.33745
 3.50    130.7124  19.8246     1959.259   1288.7102  20.00     1.481     1.379   0.0334         44      60.2897
 6.83    119.4008  22.2316     213.4421   1215.8219 -18.46     0.732     0.455   0.2397         45     47.10279
 3.50    158.3168  16.1944      55481.7   1976.2317   9.85     2.401     1.944   0.0018         46     92.69012
 7.63    129.5671  21.2406     531.7189   1916.5909 -49.59     1.153     0.668   0.1666         47     81.58443
 6.66    127.8242  22.4173     179.8805     63.7818  49.04     0.758     0.564   0.3240         48     53.66148
 3.50    165.6276  16.2877     50911.91   1461.8472 -22.42     1.929     1.892   0.0017         49     81.00375
 4.25    139.7430  20.1214     1490.615   1304.9430 -29.87     1.343     1.290   0.0498         50     68.36209
 5.92    137.6151  20.8571     756.9406   1966.9725 -54.24     1.321     1.288   0.1359         51     94.70535
 4.65    134.1930  22.3668     188.4401     20.3309 -77.12     1.106     0.411   0.2169         52     37.63209
 6.90    146.3166  21.3877     464.3478    986.2656 -82.02     1.187     0.719   0.1832         53     78.33745
 7.55    141.8608  21.0769     618.2355   1535.4261  18.99     1.258     0.713   0.1531         54     87.17876
 5.41    150.0241  21.0609     627.4093    360.2078 -89.79     1.370     1.172   0.1447         55     83.58504
 5.88    151.2527  21.1340     586.5728     67.5159  35.17     1.396     0.915   0.1494         56     80.71185
 4.52    154.2880  20.0767      1553.25    580.5296   0.53     1.459     1.214   0.0513         57     73.35845
 7.50    149.7461  22.2396     211.8652   1893.7662  72.00     0.846     0.350   0.2540         58     49.54495
 6.21    150.7870  22.5128     164.7325   1522.4130 -70.51     0.772     0.445   0.2900         59     43.99361
 8.84    152.7524  21.6747     356.4833     17.5781  70.54     0.752     0.451   0.1895         60     62.21637
 4.32    172.4573  19.9041     1820.816   1337.5020  30.61     3.121     1.353   0.0647         61      108.417
 5.47    160.9331  21.3556     478.2567    661.2181   8.43     1.295     0.938   0.1666         62     73.35845
 5.96    157.5224  22.6840     140.7004   1246.4838  44.85     0.522     0.476   0.2806         63     36.35606
 5.85    169.0938  21.0227     649.8591    659.8331 -69.07     1.132     1.036   0.1289         64     77.12284
 5.39    169.9537  21.2123     545.7574    958.2466 -25.39     1.165     0.952   0.1394         65     70.06714
 4.61    173.3420  21.4121     454.0267    715.0145 -73.92     1.580     0.956   0.1643         66     68.70648
 3.50    173.1398  20.8839     738.4915    431.3717  57.67     1.338     1.270   0.0827         67     56.23868
 3.91    183.0281  19.5117     2613.468   1134.8331 -81.50     1.584     1.535   0.0310         68     74.63435
 3.50    176.3581  21.2132     545.2834    260.0934 -89.79     1.318     1.135   0.1033         69     51.87226
 4.40    185.9651  19.7099     2177.524   1444.7770 -80.31     1.870     1.499   0.0448         70     89.84539
 3.50    225.8214  14.6576       228501   1391.9797 -31.00     2.076     2.018   0.0004         71     87.44908
 7.05    178.4478  21.7166     342.9865   1544.3652  84.63     0.992     0.633   0.2154         72     68.01595
 5.32    186.6141  20.5595     995.6309   1046.6633 -46.16     1.310     1.246   0.0902         73     82.73357
 4.15    184.2463  21.3033     501.8872     55.9127 -16.26     1.283     1.081   0.1305         74      60.2897
 5.48    180.2119  21.9510     276.3827   1694.4958   0.98     0.981     0.723   0.2210         75     56.23868
 7.97    180.2352  21.9703     271.5088    794.7919 -18.02     0.867     0.345   0.2146         76     53.66148
 6.81    189.5328  22.5280     162.4462    773.5096 -43.97     0.513     0.486   0.2598         77     38.86626
 7.29    197.7422  21.1220      593.088   1160.1317 -47.53     1.550     0.646   0.1636         78     89.31843
 5.63    203.5404  20.8685     749.0242   1409.7397 -85.04     1.412     1.227   0.1314         79     90.63008
 5.67    226.7756  19.8081     1989.107   1651.0963 -57.42     3.330     1.323   0.0791         80     144.9365
 3.63    213.3405  19.7339     2129.923   1742.2407 -62.89     1.417     1.367   0.0315         81     61.83583
 6.81    205.9597  21.0978     606.4199   1978.4481 -85.80     1.165     0.922   0.1527         82      85.2625
 3.64    206.2904  21.2552     524.5907    280.5000 -20.73     1.303     1.142   0.1129         83     54.53408
 8.76    199.4880  22.2068     218.3608   1333.4835  46.14     0.501     0.498   0.2647         84     53.21981
 4.05    203.1218  22.5901     153.4121   1355.4971 -88.97     0.717     0.500   0.2063         85     29.14969
 7.59    202.8714  21.6401     368.0233    944.3311  29.64     0.773     0.657   0.1945         86     65.90095
 5.67    206.5332  21.2764     514.4814   1764.7341 -30.08     1.147     0.975   0.1548         87     73.35845
 6.66    204.0677  21.9652     272.7856   2043.0558  45.76     0.923     0.530   0.2188         88     54.96519
 5.43    210.1978  21.3081     499.6415    162.1348 -68.72     1.176     0.803   0.1401         89     64.45239
 3.50    238.9135  16.7964     31868.02   1916.0420  54.74     1.829     1.783   0.0026         90     77.42828
 6.39    220.1382  21.5741     391.0715    451.0806 -81.82     1.505     0.634   0.2150         91     77.42828
 6.37    222.4314  21.3793      467.963    970.7880 -59.15     1.005     0.806   0.1642         92     70.73766
 4.87    234.9033  21.0587     628.6964    697.9222 -75.19     1.420     0.989   0.1199         93     69.39015
 6.88    225.7760  22.3838     185.5125   1615.3931 -72.57     0.754     0.454   0.2844         94     48.58282
 7.30    226.0213  21.1926     555.7388    961.8195   7.19     0.935     0.763   0.1465         95     74.94993
 6.47    226.7995  22.4698     171.3867    676.6063  71.03     0.766     0.445   0.2855         96     45.05386
 5.51    236.5676  20.7209      858.125   1333.7733 -30.66     1.270     1.197   0.1054         97     83.30219
 4.62    231.4575  21.9862     267.5698    472.3334  85.61     1.051     0.640   0.1912         98     47.10279
 3.50    272.8190  15.7555     83122.86   1791.5062  12.69     1.998     1.950   0.0011         99     84.42794
 5.23    238.4249  20.6875     884.9061   1786.9636  22.56     1.618     1.137   0.1060        100     86.36271
 7.26    238.6721  20.4357     1115.893   1185.5620  -3.63     1.873     1.089   0.1229        101     126.3153
 5.57    238.9028  21.3698     472.0753    724.0305   5.14     1.110     0.931   0.1596        102     69.39015
 8.21    243.8862  21.1500     577.9773   1318.6328 -19.82     0.964     0.673   0.1506        103     80.12484
 3.66    234.9470  22.6230     148.8391     67.2316  87.31     0.663     0.421   0.1808        104     24.77248
 4.62    248.1083  20.9433     699.2047     66.0397  29.50     2.154     1.118   0.1350        105     86.90759
 7.03    243.7088  21.2834     511.1317   1173.2386 -68.59     1.006     0.875   0.1702        106     80.12484
 5.89    246.8216  21.8475     304.0388   1517.1223  43.61     0.816     0.680   0.1917        107     53.66148
 8.14    244.3388  22.3162     197.4423   1597.3138 -46.17     0.571     0.337   0.2449        108     44.52689
 5.99    244.6735  22.9219     113.0145      4.3211  45.26     0.569     0.338   0.3026        109     31.48527
 7.04    255.3616  20.5992     959.8967    241.5711 -89.87     1.360     1.102   0.1197        110     105.7723
 4.75    261.0949  20.0955     1526.526   1766.4785  79.82     1.375     1.281   0.0549        111     77.12284
 7.61    251.0366  22.1096     238.8284    852.0000  90.00     0.849     0.289   0.2096        112     46.08971
 7.86    253.8339  21.8108     314.4896    947.3411  20.92     0.739     0.641   0.2276        113     65.90095
 5.83    254.1414  22.0624     249.4375    506.9341  41.18     0.857     0.666   0.2374        114     54.53408
 6.93    259.5561  21.5681     393.2681   1742.8967 -80.43     1.197     0.721   0.2172        115     78.63817
 5.93    273.9989  22.0834     244.6506    459.0115 -46.04     0.877     0.539   0.2262        116     50.95409
 3.50    293.8185  18.3766     7434.942   1943.3281  23.91     1.687     1.577   0.0102        117     70.06714
 3.50    290.8177  20.8581     756.2297    709.2502 -45.90     1.405     1.243   0.0814        118     56.65682
 3.59    298.8077  18.7874     5092.832   1460.3346 -80.84     1.606     1.559   0.0146        119     68.36209
 3.50    298.8064  20.1639       1433.4   1756.3074 -13.53     1.458     1.391   0.0460        120     60.67992
 5.00    294.7017  20.7981     799.2576   1995.5612 -16.66     1.478     1.374   0.1177        121     86.63558
 5.13    286.8722  22.2492     210.0007   1505.1132  49.53     0.833     0.653   0.2357        122     45.57473
 3.77    300.8787  19.9876     1686.099   1625.9421   6.11     1.507     1.357   0.0422        123     65.54181
 3.50    331.0763  16.0899     61088.95    288.5573  26.13     1.949     1.904   0.0015        124     81.58443
 5.22    313.1156  20.7030     872.3916   1962.8390  89.33     2.152     0.923   0.1109        125     89.05378
 5.07    318.4441  20.4393     1112.215   1282.1536 -58.44     1.484     1.235   0.0816        126     83.58504
 5.45    316.7584  21.2608     521.8929   1911.7090 -87.82     1.168     1.106   0.1573        127     75.57713
 5.57    315.9109  21.8930     291.5514    528.1438 -77.66     0.942     0.719   0.2095        128     56.23868
 9.44    313.0070  21.6741     356.6844   1145.5018 -57.91     0.798     0.313   0.1775        129     58.29939
 6.08    341.3083  19.9532     1740.411   1109.8745 -80.64     1.953     1.493   0.0792        130     126.8747
 5.75    329.5369  21.4036     457.5658   1205.6371 -53.21     1.181     0.768   0.1581        131     66.61341
 4.97    349.5454  19.2234     3408.457    165.0791 -29.32     2.390     1.893   0.0411        132     128.9048
 4.28    341.1891  21.8718     297.2987   1312.0833  80.55     1.135     0.729   0.1739        133     47.60125
 5.60    348.7218  20.6302      932.915   1995.2061 -11.00     1.366     1.291   0.1055        134     90.63008
 6.42    345.6767  20.7366     845.7898   1440.8413 -23.12     1.360     1.180   0.1272        135      99.0899
 5.80    341.1177  22.0059     262.7476   1267.7454 -36.23     1.105     0.521   0.2254        136     54.53408
 7.46    343.0191  22.1817     223.4772    719.7139 -39.29     1.013     0.298   0.2384        137     49.06625
 8.53    340.6752  22.0076     262.3458    246.9862 -28.01     0.916     0.210   0.1843        138     44.52689
 3.50    376.8674  16.4617     43373.35    500.7349   2.82     1.881     1.828   0.0020        139     78.93774
 3.68    360.7376  19.6571     2285.988   1438.6000  31.16     1.570     1.483   0.0323        140     68.01595
 4.13    369.3422  19.3158     3130.307   1583.4813  29.53     3.161     1.535   0.0384        141     110.7859
 4.96    354.5836  21.9936     265.7419    592.6671  26.93     1.064     0.711   0.2193        142     53.66148
 5.59    355.7302  21.4462     439.9862   1705.4504 -24.63     1.031     0.986   0.1687        143     68.36209
 5.82    367.5784  19.9836     1692.324   1942.5688 -27.20     2.363     1.439   0.0840        144     130.9034
 4.66    359.7424  21.1030      603.549    919.4589 -20.04     1.336     1.091   0.1230        145     68.36209
 4.31    424.1392  17.6612     14369.31   1606.8030  89.18     5.085     2.774   0.0149        146     197.2247
 3.50    372.3214  18.8405     4849.471   1989.5961  26.74     1.705     1.599   0.0158        147      70.4032
 3.79    360.3186  21.7663     327.6301   1031.4125  26.79     1.028     0.799   0.1404        148     42.35352
 8.46    357.4748  22.0191     259.5742     89.5146 -42.96     0.503     0.497   0.2073        149     49.54495
 5.04    373.1256  19.9555     1736.623   1928.3552  25.72     1.814     1.633   0.0666        150     106.4396
 5.34    365.7494  21.2057      549.061   1721.2968  45.13     1.186     0.936   0.1338        151     67.66804
 5.87    364.6712  21.7632     328.5846    529.9297  75.44     1.040     0.749   0.2118        152     64.08514
 8.74    359.5166  22.2353     212.7144    691.5233  45.48     0.507     0.492   0.2648        153     51.87226
 8.09    369.0598  21.2263     538.7694    521.9629 -14.24     0.979     0.695   0.1615        154     80.12484
 4.95    375.3856  21.0753     619.1504   1303.9401  30.35     1.196     1.004   0.1150        155     65.54181
 3.63    405.4355  18.0472     10069.77   1470.3716  58.82     3.156     2.824   0.0142        156     131.9809
 4.00    390.2851  20.0976     1523.539   1866.7634  41.25     2.486     1.550   0.0684        157     95.94338
 7.72    373.2453  22.1900     221.7695    699.2410  72.18     0.865     0.353   0.2628        158     53.66148
 6.15    370.4958  22.7155     136.6802    789.5173  45.29     0.514     0.486   0.3088        159     38.86626
 5.37    379.8829  22.1811     223.5945   1899.3389  23.98     0.943     0.676   0.2497        160     51.41523
 6.82    378.6522  22.7508     132.3081    643.6630 -45.41     0.585     0.329   0.2930        161     35.70094
 7.21    384.1840  22.0073     262.4111   1935.1663  42.44     0.770     0.566   0.2379        162     57.48397
 6.93    388.1184  21.7760      324.735    873.4873  41.71     0.873     0.662   0.2131        163     63.71577
 9.10    392.7554  21.9650     272.8423   1670.0043   0.20     0.698     0.430   0.2446        164     61.45295
 8.58    399.4329  21.8368     307.0452   1330.2388  19.79     0.742     0.454   0.2132        165      60.2897
 6.94    408.1239  21.7299     338.8032   1432.3708 -20.83     0.921     0.688   0.2147        166      66.9668
 6.14    409.2238  22.3764     186.7838   1727.4209  70.19     0.755     0.449   0.2558        167     43.99361
 5.05    412.3467  21.4479     439.3058    705.1246 -11.00     1.267     0.780   0.1529        168     61.83583
 4.04    435.7943  18.8595     4765.559   1856.6848 -24.67     2.169     2.092   0.0241        169     105.5489
