#   1 KRON_RADIUS            Kron apertures in units of A or B                         
#   2 Y_IMAGE                Object position along y                                    [pixel]
#   3 MAG_BEST               Best of MAG_AUTO and MAG_ISOCOR                            [mag]
#   4 FLUX_BEST              Best of FLUX_AUTO and FLUX_ISOCOR                          [count]
#   5 X_IMAGE                Object position along x                                    [pixel]
#   6 THETA_IMAGE            Position angle (CCW/x)                                     [deg]
#   7 A_IMAGE                Profile RMS along major axis                               [pixel]
#   8 B_IMAGE                Profile RMS along minor axis                               [pixel]
#   9 MAGERR_BEST            RMS error for MAG_BEST                                     [mag]
#  10 NUMBER                 Running object number                                     
#  11 FLUXERR_BEST           RMS error for BEST flux                                    [count]
 3.50    632.3937  12.2293      2129500   1391.4089 -65.63    51.892    22.597   0.0006          1     1112.728
 3.50    575.3050  14.1511     362715.3   1155.0331 -74.12    55.559    16.628   0.0036          2     1212.162
 3.50    207.1070  11.1686      5656531   1067.4913  64.57    86.042    43.977   0.0004          3     2086.734
 3.50    524.1910  14.8370     192849.7   1594.4073  89.81    80.108     7.698   0.0088          4     1567.017
 3.50    352.2237  11.9227      2824300    984.3736  88.58    41.879    20.017   0.0005          5     1253.438
 0.00    126.3779  13.1477     913971.2   1185.1979  55.75    48.539    13.166   0.0009          6     798.0066
 0.00    285.1797  14.0679       391585    570.8029  80.12    56.676    25.347   0.0037          7     1317.939
 3.50    318.9498  15.3775     117216.4   1594.4489  89.59    31.029     7.833   0.0105          8     1129.607
 3.50    352.2987  11.1800      5597367    814.0750 -89.28    64.800    49.905   0.0004          9     1886.314
 3.50    342.9372  11.3450      4808377   1428.3341  72.77    85.366    33.560   0.0005         10     2058.304
 0.00    447.7484  14.1172       374213    470.5728   1.22    54.144    18.316   0.0033         11     1124.281
 0.00    263.0558  14.6067     238413.9    248.3368  45.12    31.376     6.123   0.0027         12     587.1821
 0.00    125.2031  14.8960     182635.3    248.7520 -45.13    28.544     5.633   0.0032         13     531.4617
 3.50    191.5973  14.2905     319017.9    130.8463 -89.70    37.344    13.863   0.0039         14      1144.54
 0.00    194.0387  13.7502     524729.9    933.5316  -7.13    47.106    23.697   0.0028         15     1371.444
 0.00    139.1184  14.9438     174782.9    499.9589  38.28    19.180    13.532   0.0049         16     783.1646
 3.50    314.1973  12.1916      2204715    540.2120  83.80    37.410    21.433   0.0005         17     1003.516
 0.00    190.8270  13.7638     518201.4   1314.4304   5.62    47.530    21.209   0.0028         18     1323.708
 3.50     73.4941  14.7600     207006.8   1208.6843  57.58    17.553    14.495   0.0040         19     769.9937
 3.50    352.4911  11.7482      3316691   1253.1726 -87.21    45.599    22.246   0.0005         20      1401.79
 0.00     73.8024  14.8951     182800.8    437.4654  51.64    18.403    14.528   0.0047         21     786.5446
 3.92     54.0962  16.5455     39975.18     63.4768  10.66     5.140     4.701   0.0095         22     348.3876
 0.00     72.6345  14.8471     191049.3    200.0107 -48.39    17.614    14.668   0.0044         23     775.9044
 3.50     11.5145  14.2819     321537.2   1119.1783  -0.04    22.446     7.587   0.0020         24     603.3229
 3.50     11.5877  13.5321     641433.2    319.0648   0.06    34.890     7.614   0.0013         25     748.3129
 3.81     17.2858  18.6618     5691.962    984.7308 -89.73     4.479     2.062   0.0401         26     210.0857
 3.50      9.8526  17.9374     11092.86   1274.9840  -4.79    11.670     6.162   0.0460         27     469.5442
 3.50      9.5258  18.2565      8267.66    506.1042  -2.41    11.595     5.994   0.0606         28      461.607
 3.50     15.4403  18.1813     8861.021   1445.5632 -61.17     1.758     1.659   0.0134         29     109.4114
 7.47     10.9179  19.0682     3915.063    130.1242  74.01     4.257     3.835   0.1272         30     458.4391
 3.50      4.6718  20.1342     1466.672    142.7690  14.30     5.023     2.291   0.1407         31     190.0545
 3.50     18.7919  19.2452     3326.048     91.0600 -77.47     1.663     1.588   0.0335         32     102.5355
 7.04      4.8132  17.3570      18932.4    962.0982  12.55     6.250     2.303   0.0174         33     302.6932
 0.00    124.5287  15.2008     137934.6    386.7240  44.79    26.261     5.015   0.0038         34     484.2812
 3.50    190.9418  15.3215     123425.2    318.1088 -77.50    16.404    15.465   0.0072         35      822.294
 0.00    641.1682  12.3596      1888719   1240.7410 -89.87    71.011    27.165   0.0006         36     1060.189
 5.68     38.8928  22.9441     110.2473   1521.2972  57.82     1.153     0.680   0.8933         37     90.68324
 3.83     43.2823  22.0897     242.1603    915.3445 -44.85     1.175     0.701   0.2894         38      64.5273
 0.00    704.9387  12.8521      1199951    235.0789  13.31    94.136    49.677   0.0014         39     1558.349
 3.50     80.9651  16.5737     38950.93    537.4864 -58.28     1.900     1.806   0.0032         40     116.3282
 3.50     60.6879  16.8237     30939.76   1078.1769 -51.63     1.417     1.359   0.0031         41     87.17158
 9.57     79.3353  18.8720     4690.248   1330.2224  82.95     2.702     1.161   0.0710         42     306.5895
 8.69     68.3901  21.3767     466.9864    586.4158  36.89     1.732     0.627   0.3818         43     164.1963
 8.92     72.4635  20.0635     1565.327   1322.3820 -67.34     1.330     1.134   0.1376         44     198.3624
 9.56     77.4928  19.3363     3058.284   1341.5072  48.21     1.402     1.356   0.0848         45     238.8382
 9.34     72.8533  21.9725     269.7719   1343.9607 -39.94     1.264     0.721   0.2249         46     55.87336
 3.50     76.0080  20.7469     834.1144    127.7343  66.29     1.099     1.073   0.0881         47      67.6768
 9.05     73.3180  21.5481     398.7908    552.1580 -56.63     1.097     0.558   0.3481         48      127.839
 9.10     77.1741  21.9652     271.5955    563.8197 -44.27     0.741     0.568   0.4298         49     107.4917
 3.50    122.5935  16.1007     60214.91    788.9167 -56.78     2.111     1.967   0.0023         50     128.2455
 9.56     94.5249  19.0730     3897.761   1341.6290  53.63     2.220     1.480   0.0875         51     313.9702
 3.50    413.3260  12.0878      2425991    441.3543   4.39    40.873    22.594   0.0005         52     1160.296
 3.51     97.3153  19.8910     1834.885     56.0121  -7.93     1.526     1.413   0.0557         53     94.06389
 0.00    260.6163  99.0000    -24933.65    387.8619 -44.50    16.932    13.828  99.0000         54     968.5008
 3.50    582.1075  12.3707      1869497    562.1657  56.58    49.145    18.093   0.0006         55     1000.701
 3.50    308.8604  14.8334     193480.4    202.0692  41.35    18.069    14.019   0.0044         56     778.2726
 9.23    142.8268  20.4595     1086.893    632.3856 -63.60     1.426     0.584   0.1522         57     152.3582
 9.40    131.8801  20.8693     745.2331    636.6458 -18.42     0.940     0.662   0.1956         58     134.1951
 3.50    163.1101  16.7533     33012.63   1468.1348 -54.43     1.940     1.845   0.0039         59     119.4191
 0.00    372.4954  14.9396     175456.3    266.7413  51.99    19.324    13.530   0.0048         60      774.269
 3.50    171.3962  18.2221      8534.28    877.1403 -60.93     1.874     1.827   0.0115         61     90.19571
 9.27    162.4190  19.9687     1708.067    627.8748  55.17     2.083     0.761   0.1347         62     211.8128
 3.50    165.8175  21.3726     468.7772   1445.4894  -6.25     1.304     1.095   0.1737         63     74.97395
 8.10    169.1277  21.4535      435.105    651.5096 -36.47     0.877     0.672   0.2824         64      113.153
 7.42    211.6741  19.6437      2304.11    684.4976 -80.75     1.939     1.415   0.1048         65     222.3618
 0.00    204.2756  99.0000    -60.60889   1498.3649 -40.47     0.564     0.337  99.0000         66     24.99131
 3.50    266.7211  15.8431     76343.95     67.3803 -77.58     2.086     1.969   0.0018         67      127.839
 3.50    223.3653  21.6922     349.2301    774.7476 -14.32     1.202     0.965   0.2128         68     68.44154
 3.50    573.6757  12.7256      1348246    403.0563 -47.65    48.613    11.129   0.0006         69     802.7874
 3.50    865.1097  13.9293     444913.9   1092.7350  89.92    57.242    13.600   0.0032         70     1296.856
 3.50    282.7665  19.6028      2392.65   1522.1582 -48.32     1.232     1.175   0.0343         71     75.66496
 3.50    639.7369  14.4515     275038.6    636.6946  89.96    32.245    13.487   0.0042         72     1057.453
 3.50    859.5725  12.1260      2342035   1129.1223  89.97    38.850    19.198   0.0005         73     1037.083
 3.50    509.1489  14.3296     307709.8    895.3687   0.10    38.367    13.637   0.0042         74     1181.405
 3.55    322.8381  18.1795     8875.564    697.1180 -79.82     1.881     1.792   0.0145         75     118.5442
 6.85    309.7195  20.9579     686.8452     85.3593 -81.01     1.954     0.903   0.2601         76      164.513
 3.50    781.9080  12.5076      1648052    485.7255 -48.43    65.520    11.232   0.0006         77      847.382
 3.50    522.9290  14.7511     208714.9    567.1746  54.40    17.765    15.573   0.0040         78      761.024
 3.50    527.7264  15.1161     149128.3    393.2644 -53.62    18.499    12.799   0.0054         79     735.7466
 5.31    332.8576  21.8987     288.7438     93.4360  -7.84     1.068     0.836   0.3496         80     92.95067
 3.50    350.8567  20.7697     816.7955     54.4748 -39.34     1.290     1.224   0.1042         81     78.36813
 5.17    348.6103  22.6236     148.1076     42.2832 -59.05     0.983     0.545   0.5074         82     69.19781
 3.50    396.0051  16.4141     45117.44    231.3760 -58.46     1.942     1.870   0.0033         83     138.3436
 3.50    585.5182  14.8268       194656    330.9813 -38.39    18.651    14.146   0.0044         84     780.1287
 6.49    371.1452  22.4618     171.9095     71.4294 -16.35     1.203     0.716   0.6882         85     108.9346
 5.04    376.6147  22.5834      153.682     86.3850  23.02     1.364     0.457   0.4995         86     70.68611
 8.13    381.0482  20.8080     788.4945    125.7678 -10.18     1.120     0.731   0.1827         87     132.6346
 3.50    394.6075  22.0956     240.8486   1088.4695 -30.59     0.822     0.814   0.2390         88     53.01458
 3.50    399.1318  20.6982     872.4059    354.2560 -28.33     0.799     0.753   0.0622         89     49.98263
 3.50    714.4188  13.1780     888777.6    303.3004  88.46    27.358     8.482   0.0007         90     575.0033
 6.88    415.6718  20.8280     774.1224      2.5615  35.62     1.257     0.741   0.1380         91      98.3909
 0.00    755.6658  14.6715     224595.1    564.8073  42.18    42.460    18.615   0.0039         92     816.2125
 5.03    421.8590  20.4986     1048.442    158.7348  50.62     1.661     1.444   0.1457         93      140.634
 3.50    438.7731  17.7981     12611.12    251.8895 -55.52     1.557     1.482   0.0083         94     96.25172
 6.58    428.0669  19.5832     2436.331   1179.5779  41.70     1.584     1.054   0.0482         95     108.1052
 0.00    684.9614  16.2558     52203.44    431.2805 -44.76    21.649     7.025   0.0170         96     815.2751
 4.98    434.8953  21.3316     486.8038    150.9790  14.89     1.133     0.954   0.2061         97     92.38903
 9.45    439.4756  19.1423     3656.713    213.9344  26.41     2.816     1.188   0.0927         98     311.9746
 3.50    451.1122  18.9563     4339.938     21.1383 -39.37     1.703     1.572   0.0260         99     104.0471
 8.92    445.1351  21.0430     635.0375    173.6788  62.28     1.158     0.773   0.2611        100     152.6994
 8.90    441.7845  20.0984     1515.737    191.4113 -42.32     1.738     0.873   0.1417        101     197.8369
 9.07    449.4420  19.8003     1994.673    216.0844  81.33     1.722     0.653   0.0572        102     105.0408
 4.29    446.1316  20.9772     674.7205    122.0628 -30.18     1.614     1.155   0.1722        103     107.0064
 3.50    458.6750  18.8607      4739.44     34.3959 -60.50     1.679     1.537   0.0234        104     102.0266
 7.31    443.7499  21.0314     641.8859    654.7517 -41.15     1.067     0.696   0.1922        105      113.612
 8.62    442.4369  19.9669     1710.947    201.3327  -2.79     2.058     0.593   0.0554        106     87.34566
 0.00    821.4017  14.0938       382378    500.6896  21.91    56.082    29.660   0.0026        107     900.3075
 9.39    449.4447  19.9587     1723.937    209.1287 -30.97     1.580     0.771   0.1185        108     188.1278
 0.00    702.3883  13.9616     431860.2   1214.1130 -10.86    40.390    15.963   0.0026        109     1030.178
 5.13    461.9187  21.3782     466.3621   1096.1533  54.86     1.155     1.064   0.2388        110     102.5355
 8.69    457.6320  21.8865     292.0121    191.1938 -17.46     0.749     0.447   0.3394        111     91.25538
 3.50    472.2132  20.5004     1046.757    254.0892 -66.29     1.294     1.173   0.0827        112     79.68533
 3.50    472.9614  19.8044     1987.178    734.7808 -38.05     1.497     1.347   0.0489        113     89.52799
 3.50    484.9312  20.5730     979.0392   1070.4175 -73.22     1.375     1.240   0.0905        114     81.62129
 4.93    496.9196  19.8874     1840.863     82.5440  53.24     2.411     2.061   0.1175        115      199.148
 9.04    505.2596  19.5321     2553.725    273.7545  88.54     4.083     0.894   0.1327        116     311.9746
 3.75    479.8637  22.3302     194.0591    682.6153  17.84     1.030     0.720   0.3230        117     57.71497
 9.21    500.6920  20.7030     868.5631    283.2000  37.45     1.793     0.676   0.2293        118     183.3643
 0.00    810.9186  13.2899     801738.4    133.0255 -31.63    47.365    13.212   0.0011        119     840.8435
 9.23    526.1752  18.4243     7083.976    694.2490 -27.92     3.296     2.344   0.0711        120     463.5198
 3.50    505.1145  21.8298      307.669    762.6562 -79.74     1.163     0.994   0.2389        121      67.6768
 0.00    641.2502  99.0000    -940.1531    476.6158 -79.36    13.750     3.894  99.0000        122     463.6321
 3.50    692.1136  14.9151     179459.8   1398.1703 -60.67    17.147    14.697   0.0044        123     732.3308
 3.50    944.3112  12.5590      1571759    246.3104 -45.39    41.608    12.270   0.0007        124     949.0655
 8.95    507.0856  20.7006     870.4799    260.3371  12.07     1.069     0.737   0.1787        125     143.2012
 3.50    781.5032  12.3459      1912602   1272.6615  27.83    50.395    18.300   0.0006        126     1015.686
 5.17    510.6264  20.8955     727.4323    164.3679  -2.91     2.218     0.986   0.2066        127     138.3956
 8.70    507.3418  21.9943      264.416    268.3015 -47.00     0.567     0.338   0.2811        128     68.44154
 8.71    518.8856  21.4076     453.8813    268.1570  44.51     0.859     0.654   0.2826        129     118.1043
 3.98    541.0534  20.2366      1334.65    999.7314 -53.86     1.536     1.387   0.0838        130     103.0418
 3.50   1086.1444  12.1517      2287182    113.0638 -43.47    43.848    19.960   0.0007        131     1398.786
 3.50    778.3478  14.8000     199529.3     72.2978 -46.22    18.900    14.405   0.0043        132     785.1791
 4.41    559.8713  19.7148     2158.045   1041.5114 -29.66     1.619     1.540   0.0631        133     125.3724
 6.59    597.2618  17.8074     12503.23    782.3675 -80.93     4.117     3.888   0.0414        134      476.913
 4.75    556.4932  22.5195     163.0019    778.7437  88.30     0.943     0.724   0.4610        135     69.19781
 4.30    571.6570  20.1674     1422.419     45.6160  59.60     1.985     1.429   0.1004        136     131.4521
 3.50    581.4247  18.2695     8169.257    144.8221 -84.10     1.781     1.655   0.0142        137     107.0064
 7.57    577.1076  21.3409     482.6543   1001.6425  83.04     1.986     1.377   0.5082        138     225.8455
 4.01    565.5809  21.6665     357.6149    139.6904 -53.97     1.148     1.009   0.2319        139     76.34972
 3.50    688.0392  18.0487     10012.18   1531.5134 -68.20    11.349     9.754   0.0723        140      666.383
 3.50   1130.6683  11.7741      3238545   1002.3871  18.04    53.799    25.909   0.0006        141     1679.173
 3.50    585.4980  21.3178     493.0464     75.9933  34.11     1.282     1.160   0.1711        142     77.70116
 9.28    631.6955  16.9311     28026.16    888.2980  24.32     4.520     2.942   0.0150        143     387.4284
 4.97    631.7404  21.1196     591.7776    805.9729 -80.14     1.209     1.117   0.1919        144     104.5462
 3.50   1590.4493  17.5705     15552.79   1264.6968   0.49    16.219     6.541   0.0400        145     572.4412
 3.50   1590.7308  17.7020     13778.64   1040.8645  -1.14    14.188     6.315   0.0415        146      526.402
 5.51   1597.8674  20.7570     826.4561    655.1654 -32.36     1.909     1.388   0.1763        147     134.1951
 5.62   1595.9124  21.3672     471.1065    374.0342  41.13     1.272     1.258   0.2773        148     120.2876
 0.00   1593.8699  99.0000    -46.65756   1385.1064 -26.16     1.529     0.605  99.0000        149     127.4312
 6.78   1592.7118  23.4493     69.22888    566.9949  -0.12     0.742     0.669   1.3486        150     85.96915
 3.50   1567.4852  20.0395     1600.329     22.0536 -35.08     1.501     1.336   0.0619        151     91.25538
 0.00   1562.8250  99.0000    -27.51505   1566.5303 -28.41     1.365     0.524  99.0000        152     78.36813
 9.43   1541.4967  21.7197     340.4998   1335.9891 -62.71     1.220     0.491   0.4193        153     131.4521
 3.50   1558.8717  16.2701     51520.16    487.7101 -42.21     1.947     1.877   0.0025        154     120.2876
 3.50   1543.5160  20.1171      1489.95    654.6883 -42.49     1.462     1.341   0.0653        155     89.52799
 9.25   1535.3124  20.4131     1134.425   1348.3517 -63.75     2.402     0.634   0.0724        156     75.57686
 8.51   1539.5172  22.3401     192.2949    263.4748  45.53     0.509     0.490   0.4312        157     76.34972
 3.98   1536.8153  23.1162     94.08167   1429.5057 -56.02     1.521     0.861   0.9422        158     81.62129
 9.54   1526.1257  20.3690     1181.393   1331.2883  21.41     1.867     0.783   0.1915        159     208.3442
 4.68   1533.0137  21.4534     435.1334    415.7943 -28.03     1.657     1.117   0.2836        160      113.612
 9.12   1529.5067  21.3881     462.1183   1347.5441   0.16     1.073     0.500   0.1380        161     58.72851
 9.26   1539.9883  22.3520      190.188   1328.1267  88.66     1.927     0.942   0.4740        162     83.01728
 9.34   1525.5417  22.1651     225.9163   1345.9468  -5.04     1.939     0.470   0.3220        163     66.97449
 8.15   1522.5964  21.9182     283.6067   1351.9432 -27.01     1.152     0.557   0.4523        164     118.1043
 3.50   1523.4836  23.6112     59.63821     14.4995  44.60     0.509     0.490   0.6436        165     35.34306
 4.89   1519.6189  22.1900     220.8013     84.3915  80.11     1.501     0.882   0.4968        166     101.0012
 3.50   1515.7332  18.4917     6657.481    392.7216 -44.48     1.718     1.630   0.0176        167     107.9748
 5.28   1516.1360  21.2683     516.0381   1547.0355  59.83     1.453     1.003   0.2401        168     114.0692
 6.55   1489.0808  21.4901     420.7065     77.8817 -75.42     0.962     0.688   0.2512        169     97.32719
