#   1 KRON_RADIUS            Kron apertures in units of A or B                         
#   2 MAGERR_APER            RMS error vector for fixed aperture mag.                   [mag]
#   3 Y_IMAGE                Object position along y                                    [pixel]
#   4 X_IMAGE                Object position along x                                    [pixel]
#   5 THETA_IMAGE            Position angle (CCW/x)                                     [deg]
#   6 FLUX_APER              Flux vector within fixed circular aperture(s)              [count]
#   7 A_IMAGE                Profile RMS along major axis                               [pixel]
#   8 THRESHOLD              Detection threshold above background                       [count]
#   9 B_IMAGE                Profile RMS along minor axis                               [pixel]
#  10 FLUX_RADIUS            Fraction-of-light radii                                    [pixel]
#  11 FLUXERR_APER           RMS error vector for aperture flux(es)                     [count]
#  12 MAG_APER               Fixed aperture magnitude vector                            [mag]
#  13 NUMBER                 Running object number                                     
 3.50   0.0000    181.0222   1105.8365 -40.31      2525469     6.539     18.90559     5.885      7.326     83.79344  12.0441          1
 3.68   0.0006     52.4050     61.7681  -2.27     152160.9     6.359     18.90559     5.786     11.073     83.80292  15.0942          2
 3.50   0.0004     58.9521   1076.9418  81.32     241637.6     2.093     18.90559     1.972      2.831     83.77448  14.5921          3
 3.50   0.0036     15.7237    983.4587 -87.90     25021.05     4.509     18.90559     1.979      6.660     83.75552  17.0542          4
 3.50   0.0044     17.0120     89.4810 -42.63     20541.01     1.663     18.90559     1.619      2.733     83.80292  17.2684          5
 3.50   0.0017     13.8143   1444.2383 -42.28     53122.21     1.721     18.90559     1.697      2.688     83.81239  16.2368          6
 3.64   0.0448     16.2665    382.9738  86.43     2030.035     1.231     18.90559     1.191      2.538     83.79344  19.7812          7
 4.95   0.0863     13.1674    839.5089 -76.27     1054.211     1.479     18.90559     0.949      3.665     83.74603  20.4927          8
 3.64   0.0984      9.2333   1182.3411 -70.45     924.6157     1.026     18.90559     0.964      2.286     83.80292  20.6351          9
 4.21   0.1236      5.6605   1467.9125   8.54     698.0288     1.152     18.90559     0.903      2.948     79.43346  20.9403         10
 4.51   0.0365      3.6078    143.2684  59.55     2166.937     1.696     18.90559     1.490      3.850     72.85126  19.7104         11
 5.88   0.0893      3.6479    183.5916 -38.45     888.2032     1.080     18.90559     0.962      3.563     73.04725  20.6787         12
 6.99   0.2065      2.5114    843.4935  44.82     360.0262     0.507     18.90559     0.493      2.119     68.46735  21.6592         13
 6.37   0.1403      1.8622    302.3619  20.33      508.801     0.906     18.90559     0.677      3.399     65.73298  21.2836         14
 3.91   0.0206     23.8545    365.4416  -3.18      4417.41     1.390     18.90559     1.345      2.818     83.77448  18.9371         15
 4.93   0.1694     14.8386   1561.6169 -19.92     537.2113     0.905     18.90559     0.686      2.468     83.81239  21.2246         16
 4.67   0.1580     17.1879   1213.4882  -0.33      575.857     0.921     18.90559     0.725      2.095     83.79344  21.1492         17
 7.39   0.2666     15.4944    192.9995 -32.51     341.2418     0.786     18.90559     0.318      2.690     83.75552  21.7173         18
 4.18   0.0346     33.0747   1108.5681  65.68     2626.453     2.036     18.90559     1.213      3.609       83.765  19.5016         19
 3.82   0.0617     23.0219    381.4543   6.25     1475.131     1.319     18.90559     1.170      3.022     83.82187  20.1279         20
 5.46   0.1098     22.9778    696.8055  -3.26      828.808     0.886     18.90559     0.748      2.609     83.77448  20.7539         21
 7.61   0.3217     20.6041    212.2110 -18.94     282.6767     0.744     18.90559     0.450      2.686     83.74603  21.9218         22
 6.44   0.1259     23.9324   1451.8411 -46.75      722.493     0.843     18.90559     0.652      2.996     83.78396  20.9029         23
 4.88   0.0516     32.3874    325.0325 -26.40     1763.814     1.486     18.90559     1.262      3.348     83.79344  19.9339         24
 7.47   0.1432     26.2151    701.0262  -0.99     635.4858     0.703     18.90559     0.411      3.020     83.78396  21.0422         25
 6.50   0.0980     33.5743     14.7714 -89.15     928.4808     0.947     18.90559     0.712      3.568     83.79344  20.6306         26
 3.57   0.0732     37.0450   1519.9745 -74.77     1242.896     1.093     18.90559     1.076      2.239     83.82187  20.3139         27
 4.28   0.0539     38.0067   1169.0526  23.11     1690.644     1.223     18.90559     1.198      3.007      83.8503  19.9799         28
 3.71   0.0641     41.6028    913.7512 -64.32     1420.646     1.133     18.90559     1.039      2.270     83.84082  20.1688         29
 3.50   0.0004     79.0617    535.8607 -66.40       231899     1.966     18.90559     1.931      2.763       83.765  14.6368         30
 4.97   0.0549     43.5270    438.5287 -52.86     1655.913     1.481     18.90559     1.242      3.887     83.70808  20.0024         31
 4.10   0.1709     38.6270   1224.5396 -37.16     532.3832     1.156     18.90559     0.777      2.588     83.80292  21.2344         32
 4.55   0.0776     49.4868    263.5109  89.83     1171.378     1.455     18.90559     1.089      3.601     83.72706  20.3783         33
 4.50   1.8541     41.5007    999.9727  -1.62     49.04152     0.790     18.90559     0.500      1.852     83.72706  23.8236         34
 7.08   0.2131     42.5779    226.7772  19.95     426.9064     0.748     18.90559     0.450      2.604     83.78396  21.4742         35
 7.84   0.1849     45.7927    473.3825 -71.71     492.0257     0.746     18.90559     0.449      2.944     83.75552  21.3200         36
 4.11   0.0910     49.4914   1433.9777  -4.26      999.449     1.069     18.90559     0.925      2.459     83.75552  20.5506         37
 5.09   0.1720     46.7959   1429.1587  44.33     529.1902     0.809     18.90559     0.669      2.203     83.81239  21.2410         38
 5.94   0.1537     46.8517    664.8470 -43.30     592.1964     0.825     18.90559     0.669      2.732     83.81239  21.1188         39
 6.42   0.1070     50.4846    119.9498   0.88      849.871     0.780     18.90559     0.500      2.701     83.74603  20.7266         40
 3.52   0.0107     74.1052    126.4799 -19.14     8525.995     1.475     18.90559     1.433      2.591     83.71758  18.2231         41
 7.34   0.3378     57.4917   1240.0228 -32.67     269.2715     0.781     18.90559     0.319      2.202     83.75552  21.9745         42
 4.98   0.0769     64.9824   1146.2659   9.37     1184.224     1.374     18.90559     1.141      3.774     83.80292  20.3664         43
 7.06   0.0822     68.4563     17.7707  88.90     1107.937     0.996     18.90559     0.721      4.378     83.81239  20.4387         44
 6.44   0.1262     66.8790   1414.1798 -28.14     721.0579     0.963     18.90559     0.744      3.261     83.79344  20.9051         45
 6.93   0.4417     65.5014   1514.5054 -45.69     205.7446     0.501     18.90559     0.499      2.021     83.68911  22.2667         46
 5.53   0.1609     70.7447   1320.8502 -68.46     565.4425     0.911     18.90559     0.682      2.664     83.78396  21.1690         47
 3.50   0.0003    120.9251    787.4896 -59.16     344537.9     2.018     18.90559     1.992      2.808     83.71758  14.2069         48
 3.90   0.0420     81.3288    419.7149 -76.83     2166.366     1.520     18.90559     1.278      3.136     83.71758  19.7107         49
 3.94   0.0195     89.6612    375.3916 -19.36     4657.764     2.301     18.90559     2.014      4.871     83.84082  18.8796         50
 8.71   0.0438     75.8810     80.4187 -26.69     2076.862     1.370     18.90559     0.840      8.044     83.80292  19.7565         51
 4.79   0.1687     78.7909   1031.8494 -33.64     539.5912     0.892     18.90559     0.849      2.757     83.82187  21.2198         52
 3.50   0.0001    192.5951    316.2862 -64.39      1474674     2.878     18.90559     2.293      2.897     83.77448  12.6283         53
 3.50   0.0071     95.5876     54.3806 -29.57     12865.35     1.614     18.90559     1.584      2.763       83.765  17.7764         54
 5.86   0.1371     87.0195   1358.1309 -88.30     664.2287     0.995     18.90559     0.847      3.487     83.83134  20.9942         55
 5.84   0.0701     87.4903    757.1628  35.83     1296.938     1.165     18.90559     1.017      3.750     83.73655  20.2677         56
 6.63   0.0845     82.9746    930.8279  20.66     1076.897     1.160     18.90559     0.723      4.175     83.79344  20.4696         57
 6.93   0.0968     86.4810    862.1655 -47.77     939.9649     1.108     18.90559     0.733      4.573     83.77448  20.6172         58
 6.86   0.2165     85.0348   1559.2076  52.97     420.2357     0.930     18.90559     0.470      3.237     83.79344  21.4913         59
 6.00   0.0881     90.8526   1043.8802  55.00     1031.706     1.397     18.90559     0.799      3.905     83.72706  20.5161         60
 3.82   0.0701     90.7001    494.0876   0.64     1295.825     1.105     18.90559     1.019      2.441     83.67962  20.2686         61
 4.28   0.0307     97.1019    451.1805 -12.65     2958.979     1.924     18.90559     1.255      3.848     83.73655  19.3721         62
 5.06   0.0641     94.6267   1074.8350  39.51     1418.774     1.336     18.90559     1.126      3.249     83.79344  20.1702         63
 7.44   0.1306     85.3500    923.3128 -46.64     696.0823     0.575     18.90559     0.334      2.383     83.73655  20.9433         64
 6.97   0.1562     87.8495    810.6924 -59.25     581.9759     0.869     18.90559     0.590      3.177     83.72706  21.1377         65
 6.33   0.2007     94.0801    387.5246  89.88     453.2654     0.774     18.90559     0.499      2.361     83.75552  21.4091         66
 4.03   0.0007    233.9082    401.8713 -47.20     139179.5     8.632     18.90559     7.090     16.466     83.72706  15.1911         67
 6.55   0.1158    101.8555    517.3245  20.24     785.6375     0.933     18.90559     0.683      3.651     83.74603  20.8119         68
 5.90   0.0717    112.7964    268.6332  80.50      1269.81     1.522     18.90559     1.118      4.512     83.80292  20.2907         69
 4.71   0.1620    107.3404    861.3599  41.75     561.6238     0.979     18.90559     0.859      2.241     83.79344  21.1764         70
 6.49   0.0928    106.1678   1098.1515 -41.98     981.0342     0.806     18.90559     0.676      3.365     83.81239  20.5708         71
 6.85   0.1315    106.9845   1420.9861 -44.46     692.1395     0.881     18.90559     0.534      3.166     83.78396  20.9495         72
 7.78   0.1726    106.4694    180.4571 -48.20     526.8392     0.503     18.90559     0.495      2.790     83.74603  21.2458         73
 5.35   0.0894    114.2177    414.3000 -75.12      1016.99     1.174     18.90559     0.927      3.446     83.73655  20.5317         74
 5.05   0.2084    109.9821   1513.4705   1.43     436.7889     0.806     18.90559     0.687      2.366     83.82187  21.4493         75
 3.50   0.1158    116.1276    989.3898 -72.21     786.4285     1.139     18.90559     0.958      2.504     83.82187  20.8109         76
 4.15   0.1287    116.6369    152.4058  53.02     706.8085     1.006     18.90559     0.952      2.220     83.79344  20.9267         77
 5.52   0.0616    116.3723     65.2133   7.35     1477.474     1.480     18.90559     0.950      3.987     83.79344  20.1262         78
 3.50   0.0005    161.4548   1466.8241 -54.44     195554.6     1.934     18.90559     1.900      2.761     83.82187  14.8218         79
 5.02   0.0723    125.2403    492.5927  -6.86     1258.409     1.464     18.90559     1.092      3.509     83.80292  20.3004         80
 8.11   0.2642    117.6457    911.6918 -47.04     344.1548     0.575     18.90559     0.334      2.183     83.71758  21.7081         81
 4.68   0.0730    130.2387    416.2955 -27.12     1246.233     1.014     18.90559     0.997      2.407     83.71758  20.3110         82
 4.35   0.1893    127.1574   1476.9080  43.78     480.2777     0.822     18.90559     0.651      1.721     83.70808  21.3463         83
 5.12   0.1576    128.0846    884.0657 -58.07     577.0485     0.780     18.90559     0.779      2.418     83.71758  21.1470         84
 5.84   0.0637    141.3550    884.3093  52.16     1427.937     2.131     18.90559     0.964      5.384     83.72706  20.1632         85
 8.30   0.4669    134.6447     97.6783 -46.36     194.7968     0.581     18.90559     0.330      2.701     83.74603  22.3260         86
 5.23   0.0509    145.7969    352.2505 -48.50     1788.923     1.407     18.90559     1.153      3.499     83.84082  19.9185         87
 6.25   0.2211    138.1987   1599.6450 -72.96     311.3414     0.752     18.90559     0.444      2.563      63.3956  21.8169         88
 3.50   0.0021    169.2841    875.6372 -78.34     43943.14     1.768     18.90559     1.723      2.746     83.77448  16.4428         89
 3.99   0.0816    150.7436   1278.8497  28.32     1115.547     1.078     18.90559     1.029      2.668     83.77448  20.4313         90
 4.29   0.0214    164.2198   1444.2903  61.79     4252.135     1.450     18.90559     1.305      3.047     83.77448  18.9785         91
 3.87   0.1347    154.5441     80.6298 -48.01     675.7617     1.066     18.90559     0.917      2.244     83.81239  20.9755         92
 6.00   0.1288    155.1815   1578.5652   5.70     706.6641     0.898     18.90559     0.727      3.266     83.79344  20.9270         93
 7.51   0.2754    154.5055    822.5117  46.03     329.9943     0.501     18.90559     0.498      2.457     83.69859  21.7537         94
 3.50   0.0333    165.7383    102.5978 -37.77     2732.768     1.311     18.90559     1.165      2.387     83.84082  19.4585         95
 4.87   0.0867    165.0086    574.7706  86.48     1049.667     1.251     18.90559     0.963      3.176     83.79344  20.4974         96
 7.70   0.0486    165.8022   1054.6754 -60.40     1874.237     1.211     18.90559     1.000      7.137     83.81239  19.8679         97
 8.26   0.2088    159.3821    491.2143  17.93      435.748     0.756     18.90559     0.448      3.359     83.78396  21.4519         98
 5.10   0.1564    164.3577   1196.5062  18.24     581.2194     0.945     18.90559     0.817      2.482     83.70808  21.1391         99
 4.96   0.0772    167.8831    649.7219  36.86     1178.238     1.237     18.90559     1.028      3.212     83.73655  20.3719        100
 5.03   0.0501    168.4620   1367.5079  -4.70     1815.961     1.259     18.90559     0.968      3.164     83.75552  19.9022        101
 6.77   0.0905    174.8292   1198.9620 -74.73     1005.478     1.100     18.90559     0.850      4.116     83.80292  20.5441        102
 4.54   0.0452    179.3327    573.3319  24.33      2013.69     1.714     18.90559     1.330      3.895     83.72706  19.7900        103
 5.66   0.0348    185.8885   1353.4348 -69.02     2614.606     1.580     18.90559     1.377      5.449       83.765  19.5065        104
 4.12   0.0180    191.7545   1349.0994  -8.69     5058.552     1.394     18.90559     1.366      2.735     83.68911  18.7899        105
 6.94   0.0563    189.5625   1026.0391  51.22     1615.817     1.298     18.90559     1.107      6.337     83.82187  20.0290        106
 8.39   0.1572    182.3929     58.7790 -19.01     578.7872     0.766     18.90559     0.444      3.772     83.77448  21.1437        107
 3.61   0.0048    209.8589    826.0873  -7.87     18983.49     4.937     18.90559     2.269      7.876     83.74603  17.3541        108
 3.95   0.0055    229.0334    560.6039 -26.64     16581.53     3.951     18.90559     3.606      8.383     83.80292  17.5009        109
 7.27   0.1496    186.4370    834.3389  -8.75     608.2984     0.995     18.90559     0.478      3.870     83.79344  21.0897        110
 5.73   0.0503    194.2279    266.1493  -2.74     1808.419     1.598     18.90559     1.112      4.616     83.81239  19.9068        111
 3.50   0.0002    258.9285    995.8074 -39.84     597533.9     2.157     18.90559     2.062      2.810     83.82187  13.6091        112
 5.33   0.0149    207.8602    348.2912  42.92     6121.557     2.172     18.90559     1.551      5.747     83.73655  18.5828        113
 3.50   0.0099    205.7459    547.4401  30.29     9145.562     1.440     18.90559     1.435      2.577     83.77448  18.1470        114
 7.23   0.0667    193.8830   1158.3497  19.93     1363.757     0.901     18.90559     0.693      4.764     83.74603  20.2132        115
 4.67   0.0430    202.5069    249.0628 -82.07     2117.138     1.245     18.90559     1.125      2.969     83.74603  19.7356        116
 6.30   0.0989    195.0164    447.8040  -1.57     919.4899     0.905     18.90559     0.757      3.287     83.75552  20.6411        117
 3.50   0.0098    211.3949   1304.6354 -22.74     9244.327     1.484     18.90559     1.447      2.622     83.79344  18.1353        118
 3.50   0.0002    264.9597     65.7597 -32.49     441372.3     2.095     18.90559     2.035      2.801     83.82187  13.9380        119
 4.14   0.0336    209.9293    683.1187 -66.62     2708.274     1.588     18.90559     1.287      3.334     83.72706  19.4683        120
 5.97   0.2128    205.0531    940.3129  79.60     427.3099     0.730     18.90559     0.683      2.382     83.72706  21.4731        121
 6.18   0.1045    204.7234    935.2993 -17.45     869.7855     1.044     18.90559     0.660      3.619     83.69859  20.7015        122
 5.76   0.1406    204.9661    182.0299 -44.92     647.1896     0.793     18.90559     0.788      2.729     83.79344  21.0224        123
 6.06   0.0194    221.6865    344.0318  25.49     4686.649     2.076     18.90559     1.969      8.536     83.78396  18.8728        124
 3.64   0.1129    208.3053   1224.1161  17.48     805.2443     1.017     18.90559     0.915      2.314     83.67961  20.7852        125
 3.50   0.0086    223.2675   1224.5825 -89.29     10561.44     1.447     18.90559     1.430      2.544     83.81239  17.9907        126
 6.36   0.0767    216.6158    881.3004 -56.94      1186.19     1.809     18.90559     0.740      4.701     83.75552  20.3646        127
 6.23   0.0517    216.7369    739.7720 -48.77     1758.954     1.484     18.90559     1.052      5.001     83.79344  19.9369        128
 3.50   0.0001    311.2113    437.7717 -43.93      1739159     2.528     18.90559     2.337      2.957     83.80292  12.4492        129
 3.50   0.0255    221.6353    773.3149 -28.64     3567.475     1.304     18.90559     1.232      2.417     83.78396  19.1691        130
 7.25   0.1352    213.9205    791.8632 -44.17     672.6052     0.851     18.90559     0.667      3.569     83.72706  20.9806        131
 8.64   0.0429    220.8395    373.6221  32.45     2119.366     1.683     18.90559     0.981      8.949     83.80292  19.7345        132
 7.72   0.0518    226.6158    323.3230 -86.04     1756.214     1.792     18.90559     0.855      8.012     83.81239  19.9386        133
 4.09   0.0131    243.0104    111.1028 -84.61     6924.525     2.358     18.90559     1.744      4.615     83.74603  18.4490        134
 4.02   0.0051    254.5417    611.2194 -43.66     17927.62     2.738     18.90559     2.260      5.423     83.81239  17.4162        135
 7.73   0.2356    220.6618   1401.3055  46.61     385.9866     0.567     18.90559     0.338      2.275     83.73655  21.5836        136
 6.32   0.0522    229.1916    546.3879 -64.50     1741.471     1.265     18.90559     1.034      5.488     83.74603  19.9477        137
 4.00   0.0307    238.3424    837.3022  -9.76     2966.193     1.711     18.90559     1.461      3.959     83.71758  19.3695        138
