#   1 KRON_RADIUS            Kron apertures in units of A or B                         
#   2 Y_IMAGE                Object position along y                                    [pixel]
#   3 MAG_BEST               Best of MAG_AUTO and MAG_ISOCOR                            [mag]
#   4 FLUX_BEST              Best of FLUX_AUTO and FLUX_ISOCOR                          [count]
#   5 X_IMAGE                Object position along x                                    [pixel]
#   6 THETA_IMAGE            Position angle (CCW/x)                                     [deg]
#   7 A_IMAGE                Profile RMS along major axis                               [pixel]
#   8 B_IMAGE                Profile RMS along minor axis                               [pixel]
#   9 MAGERR_BEST            RMS error for MAG_BEST                                     [mag]
#  10 NUMBER                 Running object number                                     
#  11 FLUXERR_BEST           RMS error for BEST flux                                    [count]
 3.87     54.0659  16.4653     43039.33     63.4899  10.31     5.081     4.648   0.0049          1     193.5732
 3.50     17.6085  18.6403     5805.802    984.8859 -88.11     4.180     1.842   0.0188          2     100.5567
 3.50     18.7843  19.0752     3889.878     91.0677 -71.47     1.673     1.595   0.0165          3     59.01929
 3.50     15.4372  18.0445     10050.34   1445.5699 -58.56     1.765     1.663   0.0067          4     62.36261
 8.71      7.7679  21.9630     272.1436   1469.4524 -68.75     0.745     0.449   0.2050          5     51.35972
 5.07      4.5796  21.5627     393.4686    145.2529  45.23     1.230     0.964   0.1514          6     54.86184
 7.04     10.4945  22.4727     170.1913   1183.4982  44.89     0.503     0.497   0.2164          7     33.90899
 3.50     60.5844  16.3526     47747.46   1078.2451  78.79     2.095     1.992   0.0017          8     73.32869
 7.80     14.3363  22.8391     121.4445    839.6812  45.80     0.572     0.336   0.3206          9     35.84818
 3.74     25.5083  20.7690     817.3215    367.0248 -44.59     1.386     1.224   0.0656         10     49.34483
 4.02     17.9750  21.8074     314.0653    384.0877  -6.22     1.065     0.750   0.1288         11     37.23637
 7.96     24.5876  21.5050     414.9653    383.1619  87.84     1.000     0.715   0.1807         12     69.05338
 7.77     35.5276  21.5167     410.5007   1110.5074  83.69     1.018     0.640   0.1713         13     64.75692
 6.92     34.3290  21.3265     489.1188    326.4467 -55.25     1.064     0.824   0.1489         14     67.06581
 5.72     38.8936  21.7550     329.6219   1521.2977  57.82     1.154     0.680   0.1714         15     52.01401
 3.50     40.2370  22.9502      109.632   1226.1660 -45.15     0.973     0.347   0.1996         16     20.14494
 5.89     39.8462  21.8727      295.733   1170.4801  -0.96     0.941     0.732   0.1862         17     50.69699
 5.61     45.8528  21.6096     376.8439    440.1219 -39.18     1.403     1.002   0.1969         18     68.31482
 3.50     43.2798  21.9858     266.4944    915.3459 -44.82     1.174     0.700   0.1298         19     31.85195
 3.50     80.9599  16.4075     45394.93    537.4124 -67.89     2.020     1.918   0.0017         20     71.22312
 6.55     51.1657  22.3406      192.203    265.9853  36.65     0.939     0.465   0.2566         21     45.41928
 6.43     51.0299  22.4866     168.0188   1435.2108 -33.32     0.788     0.497   0.2604         22     40.28988
 6.81     49.3377  23.0578     99.28271   1233.6754  45.58     0.575     0.334   0.3305         23     30.21741
 3.50     75.9613  20.1522     1442.472    127.6706  65.45     1.364     1.260   0.0350         24     46.52275
 5.74     82.8388  21.5232     408.0624    421.4473 -51.35     1.212     0.808   0.1563         25     58.73209
 4.96     91.5984  20.6381     922.0233    376.7576 -72.96     1.865     1.539   0.1018         26     86.45129
 3.50    122.5939  15.9763     67528.06    788.9185 -58.39     2.100     1.956   0.0012         27     72.86604
 3.56     97.3459  19.6475     2296.112     56.0111  -6.65     1.519     1.385   0.0254         28     53.61481
 6.17     92.9185  21.7454     332.5327    495.8493  75.14     1.341     0.684   0.1974         29     60.43482
 6.08     98.7694  21.0094     654.9955    452.5779 -24.86     1.703     0.981   0.1346         30     81.20685
 8.03    114.3488  22.5341     160.8278    270.3333 -45.61     0.584     0.329   0.2545         31     37.68773
 7.06    117.8673  22.5215     162.7122     66.8318  46.85     0.748     0.562   0.3153         32     47.24407
 6.06    118.7044  23.0265     102.1876    990.6282 -41.71     0.576     0.332   0.2964         33     27.88941
 8.26    118.5058  22.6923     139.0233    154.4909  45.33     0.502     0.498   0.3276         34     41.93504
 3.50    163.1394  16.5986     38067.15   1468.1359 -60.49     1.999     1.918   0.0020         35     70.02601
 5.15    132.4923  22.4044     181.2296    418.0414   0.53     0.805     0.500   0.2120         36     35.37335
 3.50    171.1355  18.2278     8489.137    877.1223 -68.19     1.765     1.708   0.0080         37     62.36261
 6.86    152.5081  22.5264     161.9705   1279.9960  -1.46     0.803     0.500   0.2918         38     43.51804
 3.58    165.8672  20.9348     701.5527   1445.5352  -0.27     1.320     1.134   0.0697         39     45.04546
 4.17    167.5935  21.2447      527.382    104.3066 -28.86     1.173     1.010   0.0943         40     45.79006
 5.08    170.4301  22.1859     221.6414   1368.2188 -47.27     1.080     0.717   0.2262         41     46.15786
 5.71    169.4399  22.9379      110.875    651.5150 -35.83     0.503     0.493   0.2904         42     29.65255
 4.38    181.2359  21.9611      272.624    574.8821  23.27     1.275     0.773   0.1794         43     45.04546
 4.34    193.3881  20.6534     909.1212   1350.3932 -35.34     1.357     1.131   0.0663         44     55.47484
 8.45    186.9875  21.4974     417.8652   1354.0367 -74.12     0.796     0.783   0.1775         45     68.31482
 3.65    211.5628  18.9734         4272    827.4517  -6.95     3.903     1.922   0.0262         46     103.0481
 3.50    207.5028  19.9467     1743.152    548.9205 -81.19     1.547     1.367   0.0320         47     51.35972
 3.50    211.4505  21.3033     499.6577    684.4575 -82.33     1.680     1.042   0.1065         48     49.00095
 3.50    212.9739  20.0113     1642.415   1305.9010  53.86     1.403     1.346   0.0319         49     48.30587
 4.26    231.0617  19.0221      4084.75    562.2328  -9.15     3.351     2.841   0.0359         50     135.1364
 3.50    204.4279  23.0602     99.06311   1498.4841 -36.26     0.505     0.489   0.2208         51     20.14494
 8.15    205.6816  22.9023     114.5742    937.0054 -28.40     0.896     0.214   0.3572         52     37.68773
 3.61    224.5214  19.7313     2125.636   1225.8654 -53.91     1.549     1.417   0.0282         53     55.16919
 3.50    260.5747  15.5221     102607.6    997.2193 -61.30     2.158     2.026   0.0008         54     74.47273
 3.50    266.7132  15.7061     86609.22     67.3777 -78.85     2.116     1.998   0.0009         55     73.55892
 3.50    223.2263  21.2248     537.1362    774.7523 -19.32     1.202     1.068   0.0831         56     41.12069
 7.24    219.2476  22.2998     199.5547    740.7269 -18.84     0.845     0.353   0.2215         57     40.70741
 4.29    244.2685  20.1714     1417.187    112.8207  77.16     2.123     1.544   0.0609         58     79.52362
 4.43    256.2211  19.1358     3678.694    612.7919 -37.89     2.500     1.801   0.0286         59     96.78661
 5.85    239.8068  21.3655     471.8412    838.5142 -15.30     1.259     0.961   0.1514         60      65.7931
 4.86    240.0475  22.6228     148.2046   1478.8186 -53.94     0.940     0.464   0.2411         61     32.89655
 6.94    251.4614  21.2595     520.2554    107.4959 -45.23     1.084     0.836   0.1426         62     68.31482
 6.35    252.5684  21.6712     356.0705   1372.6412 -34.52     1.181     0.845   0.1380         63     45.24087
 3.50    288.3401  17.2920     20099.77   1486.2775 -54.62     1.867     1.775   0.0036         64      65.7931
 4.01    254.0000  22.6105     149.9038   1352.5071   0.00     1.051     0.289   0.1685         65     23.26137
 3.50    282.7326  18.9893     4209.976   1522.1934 -43.51     1.560     1.487   0.0143         66     55.47484
 6.90    271.2608  21.3161     493.8074   1273.5475 -11.09     1.161     0.926   0.1618         67     73.55892
 3.50    303.9948  17.6247     14794.71    201.5974 -73.98     1.829     1.713   0.0047         68     64.49528
 6.05    294.2973  21.0856     610.6133   1475.4902 -66.12     1.169     0.976   0.1188         69     66.81321
 3.50    302.8704  20.9567     687.5792    563.5295  64.72     1.317     1.259   0.0717         70     45.41928
 3.50    322.8517  18.0951     9592.962    697.1325 -67.45     1.711     1.657   0.0068         71     60.15438
 6.40    309.7060  21.1136     595.0498     85.4069 -81.45     1.983     0.885   0.1606         72     88.00211
 4.29    322.2261  20.8696     744.9862    641.0490 -74.76     2.205     1.229   0.1062         73     72.86604
 4.27    328.1181  19.9874     1678.923    595.2687 -49.81     1.622     1.556   0.0447         74     69.05338
 5.36    317.8036  22.7051     137.3962    226.3809 -71.76     0.752     0.447   0.2475         75     31.31658
 5.35    332.8581  21.4647     430.6526     93.4377  -7.83     1.068     0.836   0.1336         76      52.9803
 4.19    330.3325  22.1613     226.7234   1545.6162  -6.15     0.994     0.631   0.1600         77      33.4066
 3.50    350.8575  20.7319     845.7343     54.4747 -39.25     1.290     1.224   0.0574         78      44.6685
 5.14    348.6108  22.4368     175.9066     42.2829 -59.05     0.983     0.545   0.2435         79     39.44158
 3.50    368.9763  18.0604      9904.65    760.8814 -55.04     1.738     1.635   0.0066         80     59.87262
 3.50    362.0320  19.9851     1682.575   1500.1699  10.20     1.429     1.398   0.0325         81     50.36235
 3.50    396.0084  16.3053     49872.54    231.2756 -59.51     2.003     1.932   0.0015         82     70.02601
 3.50    361.5096  21.6989     347.0721   1033.6727 -46.62     1.047     0.903   0.1077         83     34.40403
 3.55    374.0851  21.6336     368.5887   1083.9071 -43.95     1.458     0.919   0.1247         84     42.33634
 6.13    369.9420  22.4047     181.1879    210.5096  87.58     0.786     0.499   0.2364         85     39.44158
 6.59    371.1455  21.5942     382.2365     71.4292 -16.36     1.204     0.716   0.1802         86     63.43791
 6.30    376.9420  21.1244     589.1725    753.8722  42.08     1.653     0.852   0.1422         87     77.14925
 3.50    397.8753  18.4890     6674.511   1461.0035 -57.52     1.678     1.607   0.0096         88     58.73209
 5.17    376.6144  22.0463     252.0508     86.3840  23.01     1.364     0.457   0.1807         89     41.93504
 3.50    398.9595  18.2934      7991.57    354.4040 -56.85     1.757     1.640   0.0084         90     61.81795
 5.97    380.9103  22.1785     223.1604    125.6369 -22.70     0.902     0.682   0.2368         91     48.65465
 3.50    394.4868  20.0335     1609.176   1088.6790 -16.48     1.485     1.357   0.0347         92     51.35972
 6.62    389.7516  21.8912     290.7516   1195.2408 -86.38     0.902     0.749   0.2106         93     56.38185
 6.59    390.2306  22.5656     156.2275    260.4030  71.18     0.744     0.452   0.2681         94     38.57462
 5.92    397.9349  21.4392     440.8743    626.5078  15.77     1.528     0.795   0.1664         95     67.56818
 7.14    415.6719  21.8479     302.5782      2.5615  28.95     1.141     0.754   0.1991         96     55.47484
 5.89    407.6978  22.3310     193.9131    281.6329 -82.40     1.007     0.467   0.2393         97     42.73387
 7.73    404.5130  21.7901     319.1281    526.8869  -2.02     0.784     0.499   0.1702         98     50.02547
 3.50    461.8477  15.1650     142566.7    807.3699 -55.93     2.140     2.040   0.0006         99     75.59946
 7.26    413.7131  22.1283     233.7153   1562.2982 -60.78     1.155     0.451   0.2506        100     53.92928
 3.50    438.7642  17.5347     16073.58    251.9271 -54.88     1.813     1.728   0.0043        101     63.96878
 4.91    421.8596  20.6916     877.7332    158.7295  50.88     1.660     1.444   0.0968        102     78.23744
 5.46    412.6987  23.2300     84.72412    199.3263  43.64     0.560     0.342   0.3249        103     25.34849
 6.30    419.4074  21.5592     394.7413   1203.2559   2.22     1.263     0.791   0.1789        104     65.01752
 9.11    415.3150  22.4091     180.4459    558.6299  42.87     0.584     0.328   0.2425        105     40.28988
 3.50    433.6354  20.3202     1235.747   1421.9039 -17.73     1.429     1.338   0.0440        106     50.02547
 6.72    427.7105  21.0467     632.8556   1179.3110  20.69     1.301     0.989   0.1343        107     78.23744
 5.64    420.6244  22.7097     136.8142   1579.7715  17.88     0.757     0.446   0.2692        108     33.90899
 6.59    424.9908  22.5050     165.1893   1063.9623 -82.15     0.609     0.607   0.2649        109     40.28988
 6.86    431.8513  21.4861     422.2352    717.7710 -64.53     0.930     0.895   0.1672        110     65.01752
 5.00    434.9497  21.2526     523.5544    151.0015  25.47     1.154     0.980   0.1125        111     54.24191
 8.11    427.1310  21.8346     306.2981    432.4409  -1.10     2.518     0.334   0.1661        112     46.84857
 7.74    427.6147  22.6899     139.3334    299.6916 -47.83     0.587     0.325   0.2720        113     34.89206
 4.33    468.5287  18.4080      7191.45    850.1567  22.24     7.405     1.888   0.0251        114     166.5261
 3.51    451.1122  18.7778     5115.387     21.1382 -39.37     1.703     1.572   0.0126        115      59.3051
 5.35    446.1109  20.6788     888.1101    122.1262 -32.70     1.653     1.204   0.0959        116     78.45327
 3.50    440.8153  21.2389      530.219    305.5591 -50.73     1.189     1.082   0.0842        117     41.12069
 7.22    434.6680  22.6674      142.246    353.3014  46.60     0.562     0.341   0.2432        118     31.85195
 3.50    458.6750  18.6701     5648.762     34.3958 -60.50     1.679     1.537   0.0112        119     58.15343
 5.39    444.1707  22.9095     113.8104    654.5854 -70.40     0.757     0.448   0.3139        120     32.89655
 7.52    444.6976  22.6030     150.9371    173.3044  44.88     0.551     0.345   0.2511        121     34.89206
 3.51    464.5992  19.9137     1796.897    468.4731 -73.90     1.596     1.441   0.0332        122     54.86184
 4.25    453.8175  22.2698     205.1628   1533.1399  37.40     0.789     0.678   0.1686        123     31.85195
 4.77    461.9124  21.2923     504.7633   1096.1415  54.26     1.154     1.060   0.1180        124     54.86184
 3.50    472.0581  20.1378     1461.774    254.1115 -72.83     1.524     1.321   0.0379        125     51.02943
 5.24    462.3787  21.8518     301.4846    724.6503 -28.34     1.116     0.728   0.1715        126     47.60064
 7.33    457.6994  22.5996     151.4144   1223.6606 -43.04     0.565     0.339   0.2285        127     31.85195
 3.50    472.9619  19.7191     2149.643    734.7726 -38.59     1.496     1.347   0.0258        128     51.02943
 3.50    478.7603  19.4257     2816.613    922.8173 -35.32     1.542     1.446   0.0208        129     53.92928
 3.92    478.7928  20.6074     948.4937   1276.8333 -53.34     1.380     1.256   0.0607        130      52.9803
 4.35    476.5132  22.5735     155.0928   1168.0372 -89.76     0.813     0.676   0.2304        131     32.89655
 3.50    484.9571  20.3345      1219.55   1070.4276 -66.11     1.365     1.226   0.0414        132     46.52275
 4.94    496.9649  19.6005     2397.825     82.5904  56.28     2.338     2.068   0.0508        133     112.1623
 5.47    489.7042  21.1388     581.4086    839.5638  81.89     1.979     0.873   0.1395        134     74.69944
 4.63    481.6934  22.1191      235.704   1309.1306  71.28     0.894     0.694   0.1777        135     38.57462
 3.61    479.8593  22.1466     229.8014    682.6146  17.68     1.030     0.720   0.1480        136     31.31658
 3.88    496.4434  19.7268      2134.38   1186.7407 -14.15     2.923     1.792   0.0463        137     91.02452
 4.18    531.9177  17.7395     13310.33    519.0345  19.57     4.599     2.664   0.0101        138      123.559
 5.97    481.6788  22.5541     157.8937   1520.4889  -0.10     0.921     0.467   0.2771        139     40.28988
 3.55    505.2574  20.4549     1091.504    763.0582  35.35     1.785     1.613   0.0623        140     62.63316
 3.50    516.2610  19.3191     3107.059   1461.0070  24.27     4.360     1.650   0.0338        141     96.78661
 3.50    502.7141  20.9906     666.4196    863.5473  86.71     1.246     1.113   0.0703        142     43.12774
 3.50    498.6335  21.7850     320.6306    366.2104 -49.90     1.014     0.951   0.1198        143     35.37335
 3.50    514.5807  20.9958     663.2795   1179.1083 -56.81     1.339     1.067   0.0687        144     41.93504
 5.57    510.5956  20.7817     807.8334    164.3583  -2.33     2.204     1.004   0.1146        145     85.26967
 4.31    520.2776  21.3199     492.0739    641.3948 -72.01     1.257     0.919   0.1058        146     47.95455
 8.43    511.4783  22.1947     219.8479    453.4845  44.06     0.503     0.496   0.2071        147     41.93504
 3.50    519.1761  22.3072     198.2073   1518.8835  43.19     0.828     0.669   0.1460        148     26.64925
 4.34    541.0017  19.8872     1841.339    999.7307 -58.22     1.570     1.410   0.0393        149     66.55965
 4.08    536.7367  21.8374     305.5133    404.4981  50.90     1.364     0.752   0.1505        150     42.33634
 6.50    545.6520  21.5852     385.3944    933.8276  70.97     1.235     0.753   0.1839        151     65.27707
 3.67    559.8237  19.6219     2350.838   1041.5420 -18.80     1.576     1.487   0.0273        152     59.01929
 4.48    597.4241  18.4684     6801.758    782.7071 -83.49     3.546     3.355   0.0255        153     159.4719
 4.22    571.6400  20.0598     1570.654     45.6350  59.09     1.992     1.404   0.0505        154     73.09773
 4.23    556.2178  22.4741     169.9584    778.7784  45.56     0.804     0.683   0.2035        155     31.85195
 3.50    581.4234  18.1114     9450.481    144.8262 -85.18     1.779     1.649   0.0070        156     60.99184
 3.50    572.2887  20.0112     1642.518   1448.0997  21.34     2.785     1.717   0.0523        157     79.09722
 3.95    565.5809  21.5139     411.5603    139.6900 -53.99     1.148     1.009   0.1138        158     43.12774
 3.50    582.9966  18.1047     9508.807    318.9901 -38.33     1.741     1.676   0.0070        159     60.99184
 6.39    563.6564  21.8286     308.0074    905.5596   5.49     1.049     0.627   0.1901        160     53.92928
 6.81    576.9733  20.7102     862.8112   1001.5247 -66.98     1.399     1.121   0.1115        161     88.57667
 3.50    585.4980  20.9189     711.9323     75.9934  34.12     1.282     1.160   0.0676        162     44.28833
 7.52    579.6700  22.7670     129.7817    740.6813 -45.55     0.569     0.338   0.2837        163     33.90899
 5.26   1004.8461  22.7922     126.7944   1237.8387  49.76     0.764     0.567   0.3070        164     35.84818
 4.64   1597.9813  20.7752     812.7035    655.1420 -30.36     1.787     1.341   0.0833        165     62.36261
 5.62   1595.9124  20.9124     716.1766    374.0342  41.13     1.272     1.258   0.1040        166     68.56189
 6.89   1594.0922  21.5402     401.7303   1384.9442 -19.49     1.473     0.518   0.1664        167     61.54381
 6.99   1592.8507  22.0035     262.1897    567.1038  41.77     0.836     0.671   0.2247        168     54.24191
 3.50   1586.8704  22.3003     199.4762   1069.2076 -26.32     0.977     0.733   0.1675        169      30.7719
