#   1 KRON_RADIUS            Kron apertures in units of A or B                         
#   2 MAGERR_APER            RMS error vector for fixed aperture mag.                   [mag]
#   3 Y_IMAGE                Object position along y                                    [pixel]
#   4 X_IMAGE                Object position along x                                    [pixel]
#   5 THETA_IMAGE            Position angle (CCW/x)                                     [deg]
#   6 FLUX_APER              Flux vector within fixed circular aperture(s)              [count]
#   7 A_IMAGE                Profile RMS along major axis                               [pixel]
#   8 B_IMAGE                Profile RMS along minor axis                               [pixel]
#   9 FLUX_RADIUS            Fraction-of-light radii                                    [pixel]
#  10 FLUXERR_APER           RMS error vector for aperture flux(es)                     [count]
#  11 MAG_APER               Fixed aperture magnitude vector                            [mag]
#  12 NUMBER                 Running object number                                     
 4.05   0.0000     52.3150     61.8087  -0.43     27039.48     5.002     4.473     11.727  0.006054895  16.9700          1
 3.50   0.0000     15.7157    983.4579 -88.03      4397.91     4.156     1.783      7.089  0.006052153  18.9419          2
 3.51   0.0000     17.0219     89.4926 -73.13     4215.993     1.499     1.453      3.008  0.006053524  18.9877          3
 3.50   0.0000     13.8197   1444.2446 -50.73     11056.43     1.598     1.581      2.586   0.00605695  17.9410          4
 6.00   0.0000      9.1991   1182.2042  43.89     164.6469     0.742     0.563      2.718   0.00605421  22.5086          5
 6.23   0.0000      3.3871    143.3811 -50.31     138.6868     1.107     0.976      4.043  0.005204378  22.6949          6
 5.00   0.0000     16.3900    382.9839  -0.24     386.8479     1.057     0.938      2.632  0.006053524  21.5811          7
 4.18   0.0000     23.8806    365.4515   0.87     803.2924     1.233     1.125      2.857  0.006052153  20.7878          8
 3.50   0.0000     58.9546   1076.9441  71.12     40033.42     1.964     1.840      3.137  0.006054895  16.5439          9
 5.07   0.0000     33.0950   1108.5361  66.79     370.8045     1.739     0.885      3.658  0.006053524  21.6271         10
 6.11   0.0000     23.0821    381.3730  14.96     296.5586     1.000     0.750      3.136  0.006054895  21.8697         11
 5.77   0.0000     32.3555    325.0668 -53.92     236.4044     1.023     0.837      3.761   0.00605421  22.1159         12
 4.64   0.0000     37.0263   1519.9836 -43.43     226.6374     0.778     0.771      2.435  0.006056265  22.1617         13
 5.68   0.0000     38.0011   1169.1432   1.71     197.9413     0.895     0.758      2.672  0.006061059  22.3087         14
 4.54   0.0000     41.5849    913.6906 -68.76     236.0399     0.910     0.803      2.870  0.006054895  22.1175         15
 3.50   0.0000    181.0514   1105.8324 -43.17       652417     5.546     5.000      6.882  0.006057635  13.5137         16
 7.50   0.0000     43.4963    438.4926 -44.97     211.3685     1.004     0.596      4.527   0.00604941  22.2374         17
 3.50   0.0000     79.0643    535.8719 -59.30     35687.66     1.845     1.817      3.477  0.006051468  16.6687         18
 6.57   0.0000     49.4990   1433.9781  -1.13     279.2733     0.779     0.500      3.754  0.006051468  21.9349         19
 3.72   0.0000     74.1245    126.4836 -73.24      1749.63     1.333     1.304      2.735  0.006051468  19.9426         20
 5.18   0.0000     81.3770    419.7339 -82.70     316.4686     1.099     0.928      3.299   0.00605695  21.7992         21
 5.40   0.0000     89.6223    375.1326 -13.79     663.8162     1.704     1.424      5.737   0.00605695  20.9949         22
 3.50   0.0000    120.9229    787.4989 -30.18     53124.27     1.885     1.876      3.161  0.006050782  16.2368         23
 3.75   0.0000     95.6262     54.4011 -23.58     2567.663     1.415     1.405      2.912  0.006054895  19.5262         24
 5.48   0.0000     90.6640    494.1106  68.14      234.046     0.877     0.689      2.748  0.006052839  22.1267         25
 8.43   0.0000     87.4979    757.4554  50.23     196.4563     0.504     0.494      3.027  0.006050096  22.3168         26
 5.14   0.0000     97.0933    451.3915 -21.21     473.3134     1.361     1.000      4.371   0.00605421  21.3621         27
 6.45   0.0001     94.8434   1075.0719  41.67     103.4355     0.850     0.657      2.469  0.006053524  23.0133         28
 8.25   0.0000    114.3429    414.2923 -47.63     140.3899     0.563     0.340      2.821  0.006052153  22.6817         29
 8.27   0.0001    116.3094    989.3312 -43.90     80.27221     0.566     0.339      2.666  0.006051468  23.2886         30
 7.36   0.0000    116.4749     65.0392   0.75     178.8839     0.796     0.499      3.390  0.006054895  22.4186         31
 7.45   0.0000    116.5277    152.4912 -42.73     134.0413     0.504     0.495      3.024  0.006052153  22.7319         32
 3.50   0.0000    192.6654    316.2727 -56.71     181236.6     2.290     2.099      3.619  0.006050782  14.9044         33
 8.85   0.0000    125.4840    492.5023 -43.20     142.2427     0.502     0.498      3.011  0.006048038  22.6674         34
 3.50   0.0000    161.4534   1466.8357 -68.56     32927.45     1.815     1.790      2.958  0.006056265  16.7561         35
 5.42   0.0000    130.1562    416.1916 -46.63     148.6222     0.790     0.678      3.115   0.00605695  22.6198         36
 5.76   0.0000    145.8126    352.3588 -34.88     230.7436     1.035     0.802      3.055  0.006056265  22.1422         37
 4.42   0.0000    234.1106    401.6433 -58.69     24522.42     6.217     5.396     16.283  0.006053524  17.0761         38
 3.50   0.0000    169.2973    875.6581 -50.98     9927.326     1.609     1.574      2.941  0.006050782  18.0579         39
 6.17   0.0000    150.6934   1278.9487   5.86     198.2011     0.728     0.666      2.448  0.006051468  22.3072         40
 7.70   0.0000    154.5005     80.5175 -45.85     139.4497     0.505     0.495      2.974  0.006048725  22.6890         41
 4.67   0.0000    164.1335   1444.1620  46.19     682.4878     1.144     1.081      2.470   0.00605558  20.9648         42
 5.21   0.0000    170.6761    323.7555 -63.13     1204.552     1.344     1.220      2.761  0.006053524  20.3479         43
 3.50   0.0000    165.7383    102.6656 -39.32     586.5903     1.102     1.048      2.870  0.006052153  21.1292         44
 5.56   0.0000    168.4935   1367.4694  11.01     173.5811     0.900     0.877      2.567  0.006051467  22.4512         45
 8.35   0.0001    167.5532    649.5013 -17.89     125.3585     0.500     0.497      3.002  0.006047352  22.8046         46
 6.66   0.0000    179.3674    573.3943  40.79     361.9044     1.048     0.886      4.193   0.00605695  21.6535         47
 6.50   0.0000    185.8621   1353.4594 -70.89     288.9352     1.085     0.962      3.036  0.006052839  21.8980         48
 4.59   0.0000    191.7973   1349.0472   7.97     927.2844     1.166     1.146      2.541  0.006059005  20.6320         49
 4.33   0.0000    209.8292    826.0977  -6.73     3021.127     3.821     1.918      9.376  0.006051468  19.3496         50
 7.70   0.0000    194.2949    266.0344   2.88      210.009     0.753     0.669      4.339  0.006051468  22.2444         51
 3.56   0.0000    205.7752    547.4225 -83.64     1810.165     1.316     1.276      2.537   0.00605695  19.9057         52
 5.33   0.0000    207.8500    348.2245  44.13     893.7326     1.706     1.267      3.640  0.006059005  20.6720         53
 5.27   0.0000    202.5124    249.1924 -81.26     235.9254     0.969     0.922      2.724  0.006054895  22.1181         54
 3.75   0.0000    211.3940   1304.6376 -24.55     1704.879     1.315     1.266      2.409   0.00605558  19.9708         55
 4.97   0.0000    229.1523    560.6175 -23.91     2645.888     3.292     2.941     10.548  0.006056265  19.4936         56
 4.89   0.0000    209.9228    683.0830 -54.75     426.9845     1.250     1.108      3.254  0.006052153  21.4740         57
 5.66   0.0000    208.1608   1224.1466  42.56     134.1347     0.740     0.567      2.435   0.00605558  22.7311         58
 3.56   0.0000    223.2501   1224.6030  89.61     2077.519     1.331     1.312      2.182  0.006059689  19.7561         59
 3.50   0.0000    258.9149    995.8238 -56.37     86268.59     1.974     1.951      3.276  0.006054895  15.7104         60
 6.25   0.0000    221.5832    344.2455 -22.00     532.4265     1.610     1.436      3.848   0.00605695  21.2344         61
 5.18   0.0000    227.7619    413.5854  11.46     2397.487     1.871     1.602      7.375  0.006057635  19.6006         62
 3.96   0.0000    221.7073    773.2344 -23.59     667.9725     1.121     1.067      2.572  0.006052153  20.9881         63
 7.44   0.0000    216.8794    739.8455 -45.52      187.735     0.852     0.665      3.803  0.006053524  22.3661         64
 3.50   0.0000    264.9493     65.7861 -57.60     65205.99     1.937     1.910      3.426   0.00605832  16.0143         65
 4.96   0.0000    243.0104    111.1028 -89.11     1133.605     1.870     1.454      7.566  0.006052839  20.4138         66
 5.61   0.0000    238.3038    837.2303 -33.43     361.2383     1.186     1.112      3.174  0.006052153  21.6555         67
 4.59   0.0000    254.5397    611.2679 -39.62     2881.035     2.187     1.819      5.082  0.006052839  19.4011         68
 6.59   0.0000    250.9715   1371.3738 -58.85     387.1461     1.226     1.021      3.122  0.006056265  21.5803         69
 3.50   0.0000    311.1951    437.7914 -46.50     219619.9     2.280     2.154      3.778   0.00605421  14.6958         70
 5.93   0.0000    249.4536    105.7782 -18.96     383.8445     1.042     0.933      5.521  0.006057635  21.5896         71
 4.95   0.0000    252.5498   1351.3389  71.15     235.2845     0.909     0.804      2.524   0.00605421  22.1210         72
 3.50   0.0000    286.7258   1485.0045 -37.95     19669.14     1.715     1.696      2.745  0.006059005  17.3155         73
 5.66   0.0000    269.9445   1272.1578  22.15     332.1341     1.141     1.040      2.590   0.00605421  21.7467         74
 3.50   0.0000    281.0555   1520.9016  80.63     4815.267     1.467     1.464      2.589   0.00604941  18.8434         75
 3.90   0.0000    288.8549    513.3441  14.70     1515.831     1.689     1.563      3.274  0.006054895  20.0984         76
 3.50   0.0000    302.1505    199.9561 -69.95     15669.88     1.676     1.667      3.159  0.006057635  17.5623         77
 3.50   0.0000    317.8173    903.7798 -73.78     45803.75     1.884     1.856      3.301   0.00605558  16.3977         78
 3.66   0.0000    293.0932   1326.0527 -10.84     2018.057     1.332     1.296      2.514  0.006052153  19.7877         79
 6.04   0.0000    296.3812   1412.4369 -47.41     704.9776     2.203     1.220      7.298  0.006057635  20.9296         80
 5.48   0.0000    292.5988   1474.0891 -72.91     646.6129     1.213     1.125      2.594  0.006054895  21.0234         81
 3.50   0.0000    350.4766   1344.3259 -47.10     187426.4     2.157     2.077      3.342  0.006052153  14.8679         82
 3.50   0.0000    350.4236    889.1561 -44.00     196495.5     2.174     2.085      3.438   0.00605695  14.8166         83
 6.72   0.0000    291.3062    246.9581  -9.45     150.7218     0.738     0.670      2.734   0.00604941  22.6046         84
 4.16   0.0000    301.2860    561.9269 -84.51     845.0479     1.176     1.158      2.810  0.006050782  20.7328         85
 7.05   0.0001    294.5081    885.5162  47.26     104.6501     0.501     0.499      2.913  0.006052153  23.0007         86
 6.58   0.0000    307.7204     83.4041  76.06     274.4724     1.343     0.926      3.908   0.00605695  21.9538         87
 3.50   0.0000    321.1586    695.6251 -47.74      11341.9     1.603     1.589      2.889   0.00605832  17.9133         88
 5.07   0.0000    320.8947    639.7018 -63.54      676.481     1.921     1.239      5.010  0.006048725  20.9744         89
 4.67   0.0000    326.5799    593.6990  16.58     1479.672     1.646     1.593      3.116  0.006051468  20.1246         90
 7.37   0.0000    323.8711    954.1208  43.45     176.2937     0.848     0.672      3.162  0.006051468  22.4344         91
 5.24   0.0000    328.5014   1544.5280  12.84      346.843     0.890     0.880      2.574  0.006050782  21.6997         92
 3.66   0.0000    345.4328    865.4210 -12.26     6941.029     1.601     1.581      2.719  0.006056265  18.4464         93
 4.60   0.0000    331.2557     91.5267 -12.50     425.8262     0.964     0.920      2.940  0.006052153  21.4769         94
 4.69   0.0000    334.3370   1438.8958 -22.21     354.2235     0.994     0.926      2.557  0.006052839  21.6768         95
 3.71   0.0000    354.8550    430.0677  86.75     4986.548     1.865     1.664      2.942  0.006052839  18.8055         96
 3.90   0.0000    349.0297     52.9388 -38.20     960.9188     1.180     1.153      2.803   0.00605558  20.5933         97
 3.50   0.0000    367.2412    759.5007 -54.60      11394.8     1.611     1.577      2.865  0.006050096  17.9082         98
 6.51   0.0000    347.2364     40.5985 -71.58     137.1594     0.734     0.455      3.030  0.006054895  22.7069         99
 7.60   0.0001    349.1794    918.8082 -45.93     123.8415     0.763     0.569      2.724   0.00605421  22.8178        100
 3.87   0.0000    360.4082   1498.9802  -2.47     1923.293     1.362     1.283      2.521  0.006053524  19.8399        101
 3.60   0.0000    366.4784    441.1104  -1.45     4100.851     1.486     1.439      2.742  0.006050782  19.0178        102
 3.95   0.0000    359.7434   1032.4745  88.46     455.5976     1.098     0.980      2.454  0.006052153  21.4035        103
 5.52   0.0000    358.7580    531.5236  -5.61      295.769     1.003     0.940      3.035   0.00605421  21.8726        104
 3.50   0.0000    394.2169    229.6394 -65.00     39785.48     1.865     1.834      3.400  0.006057635  16.5507        105
 6.22   0.0000    362.5122   1414.1954  89.35     132.7512     0.965     0.734      2.543   0.00605421  22.7424        106
 6.19   0.0000    374.3772    752.2358  49.13      374.379     1.777     0.869      4.282   0.00605558  21.6167        107
 4.05   0.0000    371.9406    990.9655  -6.52     508.5039     1.099     1.090      2.608  0.006056265  21.2843        108
 6.11   0.0000    369.4264     69.7689 -59.58     221.3545     1.021     0.808      3.157  0.006056265  22.1873        109
 6.15   0.0000    372.4563   1082.4019 -42.69     346.1128     1.100     0.947      3.076  0.006060374  21.7020        110
 8.41   0.0000    368.4728    208.4832 -42.24     138.9763     0.502     0.497      3.011  0.006050782  22.6926        111
 7.21   0.0000    374.4860     85.4943 -43.61     206.6928     0.502     0.498      3.009   0.00604941  22.2617        112
 3.50   0.0000    397.1858    352.8762 -47.70     8992.516     1.587     1.563      2.885  0.006059689  18.1653        113
 4.76   0.0000    379.1891    123.8459  47.84     312.2636     0.877     0.846      3.100  0.006056265  21.8137        114
 3.50   0.0000    396.2348   1459.7396 -39.38     7937.301     1.551     1.522      2.599  0.006056265  18.3008        115
 6.40   0.0000    381.3583     65.8504  68.19     243.2477     0.920     0.686      2.930   0.00605695  22.0849        116
 3.53   0.0000    392.8948   1087.1184 -43.26     1861.408     1.340     1.290      2.539  0.006050782  19.8754        117
 3.50   0.0000    418.6964    431.6001 -36.33     37619.16     1.844     1.821      3.227   0.00605421  16.6115        118
 3.50   0.0000    414.6547    835.7849  80.34     20949.71     1.743     1.724      3.043  0.006057635  17.2471        119
 6.65   0.0000    395.7475    625.0959 -71.56     571.8507     1.409     1.174      6.525  0.006051468  21.1568        120
 5.59   0.0000    388.1190   1194.0817 -44.39     182.0704     0.817     0.665      2.560  0.006052153  22.3994        121
 7.65   0.0000    388.6874    259.3129  44.99      144.911     0.559     0.342      2.531  0.006050782  22.6472        122
 5.36   0.0000    395.6322    976.0563 -72.62     265.0751     0.994     0.744      2.680  0.006057635  21.9916        123
 7.15   0.0000    402.6581    524.8920  73.82     253.0643     1.055     0.743      4.391  0.006051468  22.0419        124
 5.72   0.0000    406.0609    280.4920  -1.54     221.0984     0.789     0.698      2.897  0.006052839  22.1885        125
 3.50   0.0000    423.2350    924.7604  -0.08     4166.994     1.465     1.440      2.775   0.00605695  19.0004        126
 5.07   0.0000    419.8903    157.4107  53.76     695.5781     1.577     1.320      3.838   0.00605421  20.9441        127
 3.50   0.0000    437.0053    250.2997 -67.25     17247.89     1.696     1.682      3.153   0.00605421  17.4582        128
 9.01   0.0000    412.9788   1560.5126 -57.94     204.1967     0.798     0.313      3.317   0.00605558  22.2749        129
 3.50   0.0000    460.3158    806.0190 -55.61     98701.69     1.997     1.968      3.195  0.006056265  15.5642        130
 7.35   0.0000    417.7171   1202.9877  -1.05     157.1026     0.733     0.677      2.941  0.006056265  22.5595        131
 6.42   0.0000    418.3168    772.9954  -4.92     148.0379     0.746     0.670      2.929  0.006054895  22.6241        132
 5.43   0.0000    418.9897   1579.0396 -47.42     209.9366     0.778     0.768      2.477  0.006056265  22.2448        133
 6.12   0.0000    425.7877   1177.8984  46.17     428.4231     1.352     0.963      3.652  0.006052153  21.4703        134
 9.09   0.0000    420.7513    131.6127 -19.48     370.1331     1.024     0.595      6.147   0.00605832  21.6291        135
 3.88   0.0000    432.1568   1420.5510 -13.67     1218.953     1.278     1.193      2.203  0.006057635  20.3350        136
 5.07   0.0000    425.2187    298.2015  45.20     203.1347     0.741     0.560      2.642   0.00605421  22.2805        137
 7.36   0.0000    423.4867   1062.4834 -45.93     170.8184     0.501     0.498      2.833  0.006051467  22.4687        138
 4.40   0.0000    433.1017    149.3165 -63.12     571.0568     1.080     0.998      2.901  0.006048038  21.1583        139
 9.20   0.0000    429.4095    717.2090  19.03     317.6894     0.759     0.449      4.556  0.006052839  21.7950        140
 4.95   0.0000    466.9105    848.9695  22.57     3587.287     7.586     2.027     15.049  0.006053524  19.1631        141
 3.50   0.0000    449.3584     19.5427 -60.91     5663.884     1.516     1.489      2.950   0.00605421  18.6672        142
 3.52   0.0000    439.0240    303.9665 -29.43     614.4554     1.096     1.087      2.721   0.00605558  21.0788        143
 6.97   0.0000    432.5110    404.5458 -50.49      136.041     0.504     0.494      3.024  0.006052153  22.7158        144
 7.34   0.0001    432.7045    351.6670 -42.97     117.5555     0.560     0.341      2.246  0.006052839  22.8744        145
 4.83   0.0000    444.2433    120.4567 -31.07     693.3292     1.366     1.262      3.194  0.006054895  20.9477        146
 3.50   0.0000    456.8156     32.7609 -51.80       6392.4     1.531     1.513      2.938  0.006057635  18.5358        147
 5.22   0.0000    446.5759    882.0103  10.69     674.4216     2.001     1.259      5.268   0.00605558  20.9777        148
 5.48   0.0000    442.9718    653.4962   0.11     181.9668     0.786     0.697      2.699  0.006052153  22.4000        149
 7.74   0.0000    442.5296    172.5065 -41.65     279.5401     0.503     0.496      3.019  0.006052153  21.9339        150
 7.83   0.0001    444.6685   1503.6969 -46.48     71.21138     0.563     0.340      2.799  0.006053524  23.4186        151
 3.71   0.0000    462.7466    466.9019  68.79     1865.424     1.422     1.334      2.772   0.00604941  19.8731        152
 5.08   0.0000    452.0159   1531.8096  -0.37     320.5375     0.885     0.749      2.270  0.006053524  21.7853        153
