#   1 KRON_RADIUS            Kron apertures in units of A or B                         
#   2 Y_IMAGE                Object position along y                                    [pixel]
#   3 MAG_BEST               Best of MAG_AUTO and MAG_ISOCOR                            [mag]
#   4 FLUX_BEST              Best of FLUX_AUTO and FLUX_ISOCOR                          [count]
#   5 X_IMAGE                Object position along x                                    [pixel]
#   6 THETA_IMAGE            Position angle (CCW/x)                                     [deg]
#   7 A_IMAGE                Profile RMS along major axis                               [pixel]
#   8 B_IMAGE                Profile RMS along minor axis                               [pixel]
#   9 MAGERR_BEST            RMS error for MAG_BEST                                     [mag]
#  10 NUMBER                 Running object number                                     
#  11 FLUXERR_BEST           RMS error for BEST flux                                    [count]
 3.50    180.8025  13.7068     546123.1   1107.5068 -40.47     5.305     4.911   0.0004          1     196.0455
 3.82     52.3876  16.5393     40204.24     63.7599  12.65     4.889     4.352   0.0052          2     193.8792
 3.50     15.3538  18.7019     5485.978    985.1421  89.51     4.152     1.817   0.0210          3     105.8842
 3.50     17.1948  19.1083     3773.076     91.4487  25.82     1.575     1.489   0.0170          4     59.10995
 3.50     13.1969  18.0889     9648.225   1445.7733  19.73     1.619     1.607   0.0069          5     61.65346
 4.82     16.1952  21.6236     372.0013    384.7507 -82.74     1.040     0.832   0.1447          6     49.57125
 5.14      8.6855  22.3715     186.8147   1183.2109  55.80     0.736     0.647   0.2306          7     39.67636
 7.33      2.7085  21.7552     329.5613    145.8148 -33.09     0.875     0.617   0.1684          8     51.09687
 4.92     23.7039  20.6542     908.4659    367.3350  33.24     1.400     1.202   0.0831          9     69.55448
 3.50     58.4521  16.4128      45172.5   1078.4691  60.08     2.004     1.825   0.0018         10     73.31686
 6.44     22.8706  21.7712     324.7379    383.1711  64.69     0.903     0.881   0.2103         11     62.88665
 5.73     32.3587  20.9953     663.5773   1110.2778  61.87     1.909     0.974   0.1402         12     85.63603
 8.26     31.9549  21.6781     353.8103    327.5183  -0.16     0.834     0.695   0.2118         13     69.00026
 4.55     29.5238  22.9071     114.0623   1488.5518  53.04     0.502     0.495   0.2360         14     24.78562
 3.50     36.4591  22.1618     226.6095   1521.2543  88.55     0.962     0.704   0.1455         15     30.35607
 3.50     37.5751  21.9246     281.9377   1170.7378  74.65     1.001     0.831   0.1371         16     35.59564
 3.50     41.3325  22.0971     240.5214    915.3849 -71.33     0.925     0.818   0.1532         17     33.93911
 5.84     48.2341  22.1878     221.2571   1435.5917 -73.14     0.939     0.620   0.2433         18     49.57125
 7.43     44.4676  22.2297     212.8651    439.4663  45.21     0.505     0.493   0.2097         19     41.10231
 3.50     79.1055  16.4516     43587.69    537.7455  -7.17     1.905     1.803   0.0018         20     71.46044
 7.23     48.9591  22.6547     143.9149    265.6837 -62.34     0.919     0.209   0.2561         21     33.93911
 3.50     49.6731  23.4324     70.31348    881.6414 -43.79     0.585     0.328   0.2344         22     15.17803
 3.68     74.2168  20.0540     1579.123    128.1347  16.43     1.453     1.362   0.0393         23     57.12804
 6.56     81.3308  21.0401     636.7502    421.5560  14.70     1.444     0.928   0.1422         24     83.36411
 3.50    120.5688  16.0280     64389.45    789.1948 -13.45     1.945     1.857   0.0012         25     72.26189
 3.77     95.9662  19.6263     2341.362     56.2917 -62.18     1.594     1.443   0.0289         26     62.27311
 5.83     89.3102  20.6247     933.5336    377.3141 -38.38     1.743     1.423   0.1178         27     101.2501
 6.46     90.6747  21.9139     284.7437    495.9820  -2.31     0.749     0.659   0.1876         28     49.18245
 5.12     96.8231  21.1417     579.8691    453.5879  -1.99     1.647     1.056   0.1388         29     74.09824
 6.92     94.6633  22.5917     152.5197   1075.6849 -46.02     0.571     0.337   0.2293         30     32.19747
 4.63    107.2189  22.8061     125.1852    864.3951  69.69     0.764     0.438   0.2578         31     29.71692
 5.47    116.1657  22.5600     157.0369     67.0152 -37.07     0.956     0.468   0.2777         32      40.1573
 5.68    114.5088  22.5494     158.5779    415.9769  -1.48     0.785     0.500   0.2750         33      40.1573
 5.45    117.2253  22.7708     129.3289    154.0176  -0.79     0.680     0.418   0.2704         34     32.19747
 3.50    192.6793  14.4379     278513.1    318.1504 -35.77     2.258     2.100   0.0003         35     83.36411
 3.50    160.8442  16.6546     36152.73   1468.3263  32.56     1.817     1.772   0.0021         36     69.27792
 6.94    130.3049  21.8565     300.2009    418.0578  11.62     0.737     0.671   0.1915         37     52.94212
 7.48    128.5032  22.5467     158.9691    885.4984 -44.99     0.511     0.489   0.2808         38     41.10231
 3.99    233.9326  16.4465      43791.3    403.7292 -45.90     6.189     4.943   0.0060         39     242.6904
 5.80    145.8660  22.2461      209.677    353.8374  45.43     0.758     0.568   0.2129         40     41.10231
 3.50    169.0738  18.2339     8441.844    877.3600  -0.21     1.811     1.626   0.0084         41     65.28319
 4.75    163.4660  21.0805     613.4713   1445.8378 -23.66     1.138     1.080   0.1023         42     57.79623
 5.14    170.6974  20.1910     1391.812    325.4989   6.39     1.576     1.409   0.0654         43     83.82343
 4.76    165.8175  21.1740     562.8336    104.6417 -54.54     1.220     0.975   0.1115         44     57.79623
 3.50    167.7950  22.6870     139.6981   1369.1718 -42.16     0.744     0.561   0.1986         45     25.54844
 7.61    178.5435  21.2426     528.4033    575.4573  44.31     1.052     0.847   0.1631         46     79.35271
 6.94    185.9523  21.5934     382.5141   1354.6979 -52.81     1.294     0.938   0.1436         47     50.59229
 5.21    191.0763  20.4483     1098.164   1350.5454 -13.49     1.353     1.260   0.0743         48     75.12743
 4.94    209.4249  18.8206     4917.457    827.9134  -4.21     3.727     1.958   0.0325         49     147.2869
 3.68    205.5385  20.0347     1607.352    549.2784   9.24     1.463     1.317   0.0381         50     56.45195
 7.89    194.3135  22.3354     193.1285    267.3212 -44.60     0.563     0.340   0.2148         51     38.19721
 3.93    207.8263  20.7276     849.0942    349.9734  26.86     1.598     1.246   0.0772         52      60.3951
 3.64    210.7312  20.0305     1613.578   1306.1472  14.08     1.424     1.333   0.0373         53     55.42234
 4.96    228.9519  18.9240     4470.749    562.1378  -2.68     3.267     2.880   0.0407         54     167.6469
 5.51    202.2209  22.0049     261.8525    250.6948  19.01     0.900     0.662   0.1940         55     46.78184
 6.42    209.4440  21.2312     533.9904    684.6512  51.31     1.070     0.953   0.1442         56      70.9211
 3.50    222.4275  19.8567     1893.685   1226.1467  26.90     1.444     1.306   0.0304         57     52.94212
 4.29    221.1967  20.9699     679.2919    774.8510   3.07     1.228     1.136   0.0892         58     55.76765
 3.50    258.4975  15.3502     120201.3    997.4428   8.11     2.053     1.906   0.0007         59     76.14271
 5.01    221.7230  21.0091     655.1876    345.9449  26.84     1.363     1.228   0.1176         60      70.9211
 3.50    265.1008  15.7583     82542.18     67.5865  -2.07     2.031     1.879   0.0010         61     75.38253
 6.91    228.2284  21.7782     322.6312    548.3456  10.53     0.891     0.762   0.2096         62     62.27311
 5.02    243.4180  20.2410      1329.28    113.3172 -81.86     1.880     1.407   0.0730         63     89.36584
 4.47    237.7224  21.1821     558.6559    838.9177 -36.64     1.282     1.044   0.1104         64       56.791
 4.47    254.3776  19.1571     3607.082    612.7912 -27.80     2.549     1.747   0.0311         65     103.3147
 5.78    238.9854  22.8803     116.9178   1479.5089 -58.19     0.806     0.310   0.2820         66     30.35607
 8.68    236.4917  22.1791     223.0266    211.9850  32.53     0.785     0.318   0.2258         67     46.36966
 5.63    250.5946  21.1366     582.5846   1372.9886  82.89     1.452     0.974   0.1367         68     73.31686
 3.50    251.9105  21.9106     285.6122   1352.6121  63.62     1.263     0.828   0.1490         69     39.18951
 8.20    246.5130  22.4190     178.8199   1414.5033 -14.22     0.500     0.500   0.2714         70     44.68292
 6.75    249.7955  21.3745     467.9304    107.1974   0.96     1.090     0.760   0.1562         71      67.3102
 3.50    311.3768  14.2196     340530.4    439.4229 -11.23     2.197     2.011   0.0003         72     81.02852
 3.50    286.0472  17.3438     19163.92   1486.4139  20.36     1.721     1.687   0.0037         73     64.98846
 5.21    269.0456  21.5084     413.6603   1273.5546 -82.61     1.127     1.072   0.1643         74     62.58063
 3.50    280.2949  18.9871     4218.448   1522.3615 -76.25     1.530     1.486   0.0150         75     58.12744
 5.23    264.6647  22.8987     114.9498    124.9794 -27.82     0.933     0.206   0.2484         76     26.28912
 6.40    266.6922  23.1040     95.14685    498.6624 -43.54     0.568     0.338   0.3675         77     32.19747
 4.20    288.7805  19.9798     1690.795    514.9908 -14.61     1.756     1.589   0.0496         78     77.14463
 3.50    317.4287  16.1691     56538.66    905.4695   6.52     1.963     1.845   0.0014         79     73.57825
 3.50    302.2776  17.6954     13861.84    201.7938   5.00     1.793     1.624   0.0051         80     65.28319
 3.60    292.5781  19.8970     1824.766   1327.4825 -87.06     1.402     1.337   0.0326         81     54.72517
 5.47    296.1295  20.5896     964.2258   1413.6121 -41.93     2.195     1.240   0.1121         82     99.52901
 5.55    291.9290  20.9568     687.5172   1475.8376  39.84     1.237     1.093   0.1125         83     71.19128
 3.50    350.0038  14.3939     290038.9   1345.8704 -19.86     2.086     2.025   0.0003         84     79.59428
 7.27    291.1805  22.0918     241.7073    248.8008 -43.98     0.774     0.562   0.2362         85     52.57825
 3.50    350.2067  14.3508     301774.8    890.8081  -6.41     2.179     2.020   0.0003         86     80.79125
 4.52    301.0902  21.0374     638.3452    563.6510  -1.22     1.452     1.072   0.1044         87     61.34129
 3.50    320.8659  18.1073     9485.509    697.3223   8.30     1.781     1.588   0.0074         88     64.39494
 7.00    307.6422  21.0132     652.7054     85.1877  78.06     1.381     1.280   0.1697         89     102.0057
 5.00    321.3483  20.8047     790.8848    641.2813 -73.63     2.141     1.350   0.1282         90     93.35827
 6.88    308.6666  22.7074     137.1034    985.3195  45.65     0.571     0.337   0.2550         91     32.19747
 5.26    326.4825  19.7979     1999.146    595.5634 -29.83     1.814     1.652   0.0544         92      100.106
 3.57    345.2463  18.5408     6363.469    867.2098  28.37     1.943     1.597   0.0118         93     69.27792
 3.50    327.5649  21.6426     365.5731   1546.4867 -35.62     1.222     0.869   0.1193         94      40.1573
 8.77    323.3325  22.1444     230.2668    955.6740  45.29     0.574     0.335   0.2025         95     42.92996
 3.50    331.3411  21.4117     452.1748     93.1862   8.23     1.261     0.963   0.1031         96     42.92996
 6.43    333.3611  21.5044     415.1925   1440.4208 -34.47     1.109     0.793   0.1746         97     66.73734
 3.50    330.6610  23.3062     78.97998   1065.7026 -47.15     0.564     0.340   0.2087         98     15.17803
 3.68    354.7003  18.7575     5211.833    431.8577  13.96     1.904     1.842   0.0158         99     75.89017
 7.70    338.0227  22.4811       168.87    806.4822 -57.94     0.798     0.313   0.2818        100     43.81521
 5.33    349.2087  20.6669     897.9579     54.6703   4.47     1.385     1.116   0.0880        101     72.79129
 3.50    366.9506  18.0830     9700.637    761.0951  -6.58     1.772     1.586   0.0073        102     65.28319
 3.50    359.5818  19.9249      1778.39   1500.3344 -71.04     1.473     1.391   0.0336        103     55.07486
 5.80    347.7420  22.3751     186.1956     41.9935  -4.03     0.720     0.674   0.2606        104     44.68292
 3.73    366.3561  19.1435     3652.609    442.8058   4.60     1.602     1.454   0.0185        105     62.27311
 3.50    359.3577  21.4230     447.4893   1034.1500 -21.18     1.323     1.001   0.1074        106     44.25119
 6.41    354.7786  22.4549      173.005   1398.6235  72.11     0.737     0.450   0.2551        107     40.63255
 4.42    358.7258  22.0051     261.8021    532.9302  76.30     1.019     0.746   0.1799        108     43.37484
 3.50    394.2700  16.3505        47839    231.4159  -4.06     1.962     1.804   0.0016        109     72.52707
 6.27    362.2943  21.8839     292.7111   1415.1569 -72.09     0.933     0.670   0.2017        110     54.37324
 6.14    374.6461  21.0233     646.6682    754.2100  44.39     2.046     0.724   0.1365        111      81.2651
 5.37    372.1427  21.4457     438.2311   1084.1969 -23.39     1.314     0.879   0.1566        112     63.19119
 6.26    367.7691  22.5428     159.5457    210.5549  68.93     0.759     0.445   0.2701        113     39.67636
 3.98    371.5146  21.4407     440.2574    992.3721  -4.57     1.245     0.959   0.1194        114     48.39548
 7.55    368.8334  21.6908     349.6959     71.1674  42.45     0.828     0.663   0.1895        115     61.02752
 4.40    374.6644  22.4377     175.7637     87.1614  13.72     1.078     0.409   0.1952        116     31.59559
 7.17    379.0144  21.7369     335.1373    126.0072 -44.75     0.891     0.532   0.1796        117     55.42234
 7.92    380.1916  21.9187     283.4891      1.3709  72.90     0.742     0.451   0.1557        118     40.63255
 3.50    395.5740  18.5469     6327.511   1461.0891  29.89     1.559     1.486   0.0100        119     58.45678
 3.50    397.1368  18.3471     7605.775    354.5716  -6.81     1.748     1.526   0.0090        120     62.88665
 3.61    392.3617  20.0561     1576.045   1088.7413  -2.02     1.436     1.278   0.0365        121     52.94212
 3.50    418.5695  16.4526     43546.66    433.3101   7.46     1.959     1.787   0.0018        122     71.46044
 3.50    414.4074  17.2447     20994.75    837.4326  17.19     1.842     1.679   0.0035        123      67.3102
 7.17    396.1248  20.6594     904.1604    627.1854  61.98     1.977     0.878   0.1248        124     103.8707
 7.23    387.8064  21.9775     268.5321   1195.8057  48.48     0.750     0.561   0.2097        125     51.84285
 3.50    395.1255  21.6205     373.0857    977.5923  76.25     1.235     0.985   0.1237        126     42.48042
 6.22    401.9259  21.2262     536.4603    527.0042  43.86     1.332     0.945   0.1562        127     77.14463
 6.26    409.7713  22.0205     258.0996      1.3831  78.27     1.567     0.375   0.1844        128     43.81521
 4.87    420.2654  20.6134     943.3199    159.2099  48.92     1.807     1.526   0.1016        129     88.28519
 3.72    406.4822  22.8839     116.5297    282.5084  44.57     0.508     0.492   0.2000        130     21.46498
 3.50    459.8504  15.2152     136117.4    807.5850   4.53     2.069     1.899   0.0006        131     76.14271
 3.50    422.7900  19.1492      3633.46    926.3993  15.32     1.637     1.440   0.0175        132     58.45678
 3.50    437.0163  17.5840     15360.99    251.9980  10.22     1.841     1.648   0.0047        133     66.73734
 6.94    420.5904  20.7820     807.6401    135.1587  11.87     1.978     0.991   0.1426        134     106.0654
 3.83    431.5284  20.2991     1259.977   1421.9464  63.69     1.412     1.251   0.0475        135     55.07486
 6.81    418.4487  22.6294     147.3162   1580.4958 -39.12     0.505     0.492   0.2584        136     35.05217
 8.80    418.5029  21.7798     322.1772    774.9987 -31.96     0.801     0.312   0.1618        137     47.99715
 5.29    425.3546  21.6369     367.4962   1178.8044  39.01     1.015     0.913   0.1648        138     55.76765
 5.34    433.0443  21.2962      502.964    151.4437   9.94     1.320     0.996   0.1460        139     67.59481
 7.10    425.5018  22.3330      193.552    299.9872   1.75     0.780     0.500   0.2738        140     48.79055
 8.64    423.0000  22.3029     198.9874   1063.9739   0.00     0.846     0.289   0.2598        141      47.5955
 4.79    466.5239  18.3123     7853.761    850.5317  22.22     7.483     1.917   0.0275        142     198.6719
 3.50    449.5338  18.8448     4809.342     21.2809   8.03     1.697     1.494   0.0139        143     61.34129
 8.48    430.3995  21.8769     294.6029    720.1899  19.42     0.757     0.446   0.1978        144     53.66245
 3.83    438.8527  21.2547      522.545    305.9849   1.90     1.359     0.978   0.1006        145     48.39548
 5.22    431.7938  22.7843     127.7274    405.9717  -1.01     0.703     0.404   0.2527        146     29.71692
 5.11    444.4103  20.6995     871.3309    122.2891  -4.61     1.510     1.262   0.0962        147     77.14463
 3.50    446.2090  20.8955     727.4508    884.0020   0.27     1.746     1.188   0.0822        148     55.07486
 3.50    457.0356  18.7159     5415.762     34.5201  -4.32     1.689     1.526   0.0125        149     62.58063
 6.16    442.9377  21.9588     273.1968    655.0332 -82.53     0.791     0.785   0.2046        150     51.47121
 8.01    442.2404  22.0250     257.0295    174.9936   0.30     0.691     0.427   0.2045        151     48.39548
 5.22    451.2191  21.7336     336.1641   1533.1263  78.27     1.155     0.715   0.1663        152     51.47121
 7.12    452.1957  22.4894       167.58   1224.2380  71.61     0.870     0.343   0.2782        153     42.92996
 4.27    462.6931  19.9746     1698.865    468.6153  11.59     1.524     1.259   0.0414        154     64.69238
 3.50    459.7192  21.1758     561.9293   1096.2539  13.04     1.317     1.075   0.0888        155     45.95378
 5.09    460.2853  21.3367     484.5128    724.7584 -40.63     1.301     0.898   0.1354        156      60.3951
 3.50    470.8533  19.7271     2133.762    734.9095  28.83     1.505     1.270   0.0269        157     52.94212
 4.16    470.3935  20.0752     1548.491    254.2337   8.56     1.561     1.282   0.0450        158     64.09612
 3.50    476.6703  19.4578     2734.422    923.0995  19.37     1.543     1.358   0.0223        159     56.11084
 3.50    470.0435  22.4280     177.3383   1132.7686  69.41     1.272     0.474   0.1820        160     29.71692
 4.82    476.7152  20.5774     975.0861   1276.8671 -18.70     1.364     1.171   0.0750        161      67.3102
 5.32    474.4258  22.0510     250.9514   1168.8453  48.21     1.064     0.731   0.2244        162     51.84285
 4.70    487.9083  21.0483     631.9685    839.7307 -83.34     2.284     0.863   0.1242        163     72.26189
 4.28    531.8464  17.2631      20643.1    518.7302  14.63     4.283     3.686   0.0098        164     187.1273
 4.33    494.4384  19.6139     2368.292   1186.7635 -29.96     2.990     2.116   0.0547        165     119.3512
 4.18    482.6162  20.3828     1166.486   1070.7542  25.27     1.421     1.210   0.0556        166     59.75597
 6.34    479.6473  21.7125     342.7653   1309.4797  56.30     1.070     0.795   0.2040        167     64.39494
 5.21    495.2841  19.5580     2493.466     83.0719  35.55     2.303     1.986   0.0534        168      122.526
 5.69    477.8947  22.0590     249.1158    682.3663  20.87     0.918     0.682   0.2161        169     49.57125
