#   1 KRON_RADIUS            Kron apertures in units of A or B                         
#   2 Y_IMAGE                Object position along y                                    [pixel]
#   3 MAG_BEST               Best of MAG_AUTO and MAG_ISOCOR                            [mag]
#   4 FLUX_BEST              Best of FLUX_AUTO and FLUX_ISOCOR                          [count]
#   5 X_IMAGE                Object position along x                                    [pixel]
#   6 THETA_IMAGE            Position angle (CCW/x)                                     [deg]
#   7 A_IMAGE                Profile RMS along major axis                               [pixel]
#   8 B_IMAGE                Profile RMS along minor axis                               [pixel]
#   9 MAGERR_BEST            RMS error for MAG_BEST                                     [mag]
#  10 NUMBER                 Running object number                                     
#  11 FLUXERR_BEST           RMS error for BEST flux                                    [count]
 4.06     54.7854  16.4816     42398.69     63.6141  10.86     5.365     4.865   0.0052          1     201.5104
 4.05     18.2135  18.6641     5680.272    984.9620 -89.85     4.237     2.095   0.0223          2     116.8546
 4.10     19.4714  19.2035     3456.365     91.2174 -50.22     1.811     1.786   0.0224          3      71.2709
 3.50     16.2576  18.0978     9569.337   1445.6405  10.92     2.069     1.951   0.0077          4     68.27317
 5.88      5.8206  22.1266     234.0859    145.2245  -0.38     1.171     0.700   0.2379          5     51.27777
 3.50     61.4063  16.4107      45259.2   1078.3906  60.70     2.429     2.331   0.0019          6     80.15064
 7.15     11.4045  22.9577     108.8716   1183.2152  19.09     0.760     0.448   0.3970          7     39.79474
 6.20     19.1504  21.2403     529.4979    384.5094   6.20     1.294     0.940   0.1350          8     65.82211
 6.18     26.2150  20.4556     1090.861    366.8643  22.57     1.520     1.277   0.0829          9     83.25911
 8.14     25.4828  21.4693     428.8209    382.6798  34.64     1.089     0.824   0.1878         10     74.14753
 6.45     36.5190  21.5555     396.1025   1110.6578 -49.38     1.297     0.966   0.1913         11     69.78813
 6.19     34.8937  21.1874     555.9462    326.7797  -6.17     1.759     1.173   0.1682         12     86.08225
 3.50     81.5333  16.4314     44407.55    537.4374  -8.76     2.426     2.341   0.0020         13     80.15064
 6.56     40.7101  22.3525     190.1035   1170.5583  40.85     1.270     0.507   0.2929         14     51.27777
 5.84     40.0144  22.1433     230.5096   1521.2733  85.98     0.741     0.661   0.1927         15     40.90551
 5.97     44.3194  22.0903     242.0415    915.1635 -57.45     1.037     0.830   0.2440         16     54.38829
 8.83     45.6943  22.6958     138.5702    440.3448  43.14     0.570     0.337   0.2968         17     37.87114
 3.86     76.6940  20.1174      1489.49    128.1458 -36.54     1.719     1.565   0.0447         18     61.35826
 6.39     91.3040  20.2296     1343.319    376.7011  59.93     2.277     1.590   0.0954         19     117.9997
 5.62     84.3886  21.1830     558.2295    421.1944 -71.75     1.543     1.097   0.1378         20     70.85042
 3.50    123.3941  16.0035     65858.24    788.9817   1.93     2.491     2.407   0.0014         21     82.53824
 4.29     98.1545  19.6823     2223.622     56.0174  -2.94     1.876     1.626   0.0352         22     72.10451
 6.22     99.8760  21.2277     535.6925    452.8296  11.32     1.469     1.252   0.1651         23     81.44497
 5.77     92.9685  22.1683     225.2524    495.7600  -1.84     0.890     0.757   0.2205         24     45.73375
 7.44    118.7651  23.0584     99.22583    990.2153  56.24     0.770     0.712   0.5831         25     53.27821
 7.94    118.3204  24.1291     37.01477    415.3350 -44.33     0.572     0.336   1.0143         26     34.57146
 3.50    163.8909  16.6407     36618.69   1468.2533 -12.36     2.297     2.242   0.0023         27      76.5272
 8.54    132.4837  22.1398      231.243    418.0073   0.90     0.791     0.500   0.2408         28     51.27777
 3.62    171.7659  18.2693     8171.319    877.2239 -65.04     2.104     2.045   0.0097         29     73.13316
 5.02    152.7571  24.5171      25.8927   1280.5729  70.56     0.724     0.458   1.1463         30     27.33114
 3.53    167.9653  21.2870     507.2423    104.0224 -78.63     1.477     1.352   0.1034         31     48.27642
 6.26    166.7164  20.9812      672.256   1445.8735  25.87     1.481     1.385   0.1402         32     86.77369
 6.54    161.5322  24.8537     18.99023    634.5322  45.00     0.509     0.489   1.7683         33     30.92166
 6.44    170.4764  22.1644     226.0735   1368.4977   1.76     0.962     0.894   0.2828         34     58.87308
 6.49    170.4273  23.4836     67.07422    651.2307  19.56     0.769     0.448   0.5804         35     35.84446
 7.24    181.4357  21.9253     281.7496    575.3188  32.57     1.271     0.859   0.2827         36     73.33715
 5.24    194.1731  20.5851     968.1836   1350.5505 -52.42     1.469     1.346   0.0802         37     71.48021
 6.58    188.1913  21.1931      553.056   1354.9642  38.80     1.031     0.844   0.1171         38     59.62951
 4.47    212.4319  18.8362     4847.527    827.3854 -12.54     4.254     2.183   0.0295         39     131.7576
 4.70    208.1951  19.8998     1820.029    548.9749 -54.46     1.677     1.562   0.0442         40     74.14753
 3.50    213.7668  20.1484     1447.591   1306.0121  -5.55     1.672     1.540   0.0406         41      54.1129
 5.56    232.0003  18.7890     5062.958    561.9341 -29.94     3.527     3.152   0.0385         42     179.5554
 3.50    267.4318  15.7344     84382.45     67.5887   4.05     2.519     2.455   0.0011         43     85.03456
 5.22    212.3623  21.1920     553.6023    684.2392 -21.57     1.588     1.414   0.1490         44     75.93927
 3.50    261.3217  15.5366     101242.5    997.3779 -21.97     2.507     2.488   0.0009         45     85.21007
 3.57    225.6275  20.0056     1651.047   1226.0277  56.39     1.639     1.513   0.0361         46     54.93492
 4.82    224.2253  21.0096     654.8601    774.7047 -64.76     1.485     1.273   0.1065         47     64.21365
 5.37    245.7519  19.8603     1887.517    112.9574 -84.19     2.268     1.820   0.0606         48      105.287
 4.73    256.7946  19.0511     3976.888    612.8154 -30.55     2.748     2.239   0.0311         49     113.7449
 6.37    240.4774  21.1283     587.0408    838.2289  -1.00     1.566     1.476   0.1731         50     93.56676
 6.42    253.0003  19.4307     2803.723   1372.7172 -71.85     1.388     1.020   0.0286         51      73.7302
 7.14    251.7136  19.5105     2605.046    107.6560 -47.45     1.285     0.961   0.0300         52     71.90964
 3.50    289.1075  17.3290     19426.21   1486.3608   1.53     2.188     2.127   0.0041         53     73.54058
 7.65    254.4976  21.5284     406.1219   1352.0000  31.85     0.805     0.311   0.0754         54     28.18893
 3.60    283.4612  19.0428     4007.654   1522.2333  52.35     1.853     1.816   0.0173         55     63.98056
 8.02    266.9816  22.7747     128.8561    123.0000  90.00     0.858     0.289   0.3354         56     39.79474
 6.63    272.2898  21.8198     310.5198   1273.7919   3.53     1.216     0.928   0.2395         57     68.49165
 3.50    304.5837  17.6808      14049.6    201.6434   9.84     2.209     2.162   0.0057         58     73.74345
 5.28    294.7334  18.8007     5008.708   1475.5226 -23.87     1.490     1.372   0.0215         59     99.28322
 4.40    303.5009  21.0666     621.3947    563.4193 -19.54     1.662     1.501   0.1178         60     67.39219
 3.50    323.5641  18.1322     9270.684    697.2144  48.95     2.098     2.084   0.0083         61     70.85042
 8.21    294.2909  22.4291     177.1631    247.3220 -43.16     0.553     0.344   0.2119         62     34.57146
 8.21    309.9417  21.2154     541.7795     85.7309 -48.00     1.182     0.645   0.1386         63     69.14293
 5.55    322.5255  20.6825     885.1306    641.3193  77.65     1.952     1.534   0.1148         64     93.56676
 5.15    328.8730  19.8172     1963.848    595.4155 -35.20     1.939     1.713   0.0506         65      91.4675
 5.86    331.2283  22.2019     218.3898   1545.7670  43.51     1.148     0.833   0.2772         66     55.74481
 6.09    333.6950  21.5397     401.9176     93.5791  55.69     0.971     0.940   0.1542         67      57.0691
 5.25    351.3244  20.7273     849.3376     54.6837  61.37     1.405     1.282   0.0873         68     68.27317
 3.68    369.6347  18.0677     9838.254    760.9844  20.92     2.099     2.041   0.0081         69     73.74345
 3.50    396.6434  16.3282     48834.04    231.3520 -26.42     2.431     2.344   0.0018         70     80.52258
 4.58    362.7214  19.9745     1699.065   1500.1469   1.09     1.885     1.588   0.0490         71     76.72218
 6.58    362.1609  21.7625     327.3456   1033.3594 -58.97     1.241     0.995   0.2344         72     70.63924
 6.42    376.5254  20.2763     1286.753    753.3805  48.83     1.997     1.131   0.0731         73     86.63128
 5.64    381.7092  20.5966     958.0034      1.5745 -88.36     2.138     0.633   0.0598         74      52.7144
 5.73    375.3517  21.3860      463.006   1083.9893 -64.08     1.453     1.092   0.1642         75     70.00188
 6.92    371.3849  21.4908     420.4286     72.0737  -4.98     1.328     0.618   0.1547         76     59.87953
 7.68    370.4340  22.3115     197.4199    209.7979 -20.41     0.757     0.448   0.2406         77     43.72983
 3.50    399.6176  18.3512     7577.295    354.4628  17.25     2.015     1.927   0.0096         78     66.94735
 3.50    398.5452  18.5625     6237.079   1461.0853  -1.85     1.953     1.880   0.0112         79     64.21365
 5.48    384.9274  21.9874     266.1066     67.2584  84.64     1.574     0.663   0.2197         80     53.83611
 5.96    376.7703  22.7545     131.2811     87.0265   1.14     0.694     0.420   0.2518         81     30.43467
 6.77    382.1244  22.0129     259.9204    125.8206 -25.56     0.976     0.759   0.2406         82     57.59029
 4.02    395.3357  20.1320     1469.588   1088.6277  16.79     1.645     1.542   0.0457         83     61.84332
 7.53    397.2801  20.9118     716.6221    626.6414 -84.29     1.368     1.024   0.1310         84     86.42866
 6.06    413.7102  19.8080     1980.646      1.9376  88.84     2.794     0.912   0.0421         85     76.72218
 5.80    390.9907  24.1847     35.16577   1196.0000  90.00     0.849     0.289   0.8096         86     26.21511
 7.06    405.4550  21.5798      387.345    526.5231  81.85     1.415     0.997   0.2283         87     81.44497
 3.50    462.6592  15.1900     139311.5    807.5481 -14.75     2.549     2.471   0.0007         88     85.73444
 3.50    439.4121  17.5825     15381.63    252.0300   6.63     2.198     2.152   0.0052         89     73.94577
 6.39    408.1780  22.0926     241.5278    281.9645  29.19     1.164     0.805   0.2659         90      59.1263
 5.73    422.2335  20.3828      1166.53    159.3221  51.63     1.823     1.388   0.0827         91      88.8157
 6.58    427.0642  22.8126     124.4363    299.6302  84.40     1.385     0.613   0.5116         92     58.61877
 7.34    419.4577  22.8723     117.7816   1204.3013  -8.30     1.015     0.481   0.4647         93     50.39614
 7.02    428.1476  21.5305     405.3131   1179.8237  43.93     1.268     1.091   0.2148         94     80.15064
 4.39    434.3699  20.5952     959.2284   1421.9888 -10.82     1.560     1.399   0.0663         95     58.53868
 8.46    424.2213  21.6368      367.521    133.4180  71.45     0.751     0.455   0.1408         96     47.65348
 5.96    421.4902  23.7047     54.71484   1580.9540   2.68     0.778     0.499   0.7197         97     36.25886
 8.25    421.6680  22.0837     243.5121    136.3273  45.21     0.574     0.335   0.1580         98     35.42521
 7.29    425.5192  23.1284     93.03516   1063.4724  46.62     0.503     0.496   0.4232         99     36.25886
 8.39    431.2661  21.5945     382.1353    718.8472  67.24     1.078     0.508   0.1709        100     60.12851
 6.61    428.4362  21.1410     580.2518    432.8666  -1.42     3.052     0.580   0.1053        101     56.25123
 4.77    469.1457  18.2608     8235.292    850.1890  21.91     7.491     2.172   0.0246        102     186.7339
 4.02    451.8686  18.7661     5170.993     21.3246   5.41     2.100     1.955   0.0164        103     78.26448
 5.98    435.1284  21.1677     566.1593    151.0912  52.00     1.240     1.134   0.1322        104     68.92652
 5.40    441.5390  21.2716      514.483    305.5747 -51.09     1.441     1.138   0.1418        105     67.17014
 5.43    446.8850  20.7229     852.8031    122.1028  85.16     1.505     1.355   0.0954        106     74.94915
 6.24    435.6659  23.9265     44.60608    353.6778 -45.54     0.573     0.336   0.6786        107     27.87241
 3.92    459.3049  18.6447     5782.672     34.4913 -43.25     1.983     1.870   0.0137        108     73.13316
 8.32    445.0175  22.7610     130.4972    654.3727 -25.27     1.075     0.452   0.4661        109     56.01217
 3.68    465.1302  20.0128     1640.118    468.4329  46.31     1.735     1.537   0.0388        110     58.61877
 5.36    454.5111  22.3382     192.6282   1533.5862   2.60     0.992     0.775   0.2541        111     45.07568
 3.85    462.4621  21.3996     457.2688   1096.4276  13.24     1.424     1.022   0.1078        112      45.4059
 6.23    454.6659  22.8913     115.7352   1224.3201  45.65     0.572     0.336   0.2615        113     27.87241
 4.18    473.5636  19.7975     1999.858    734.7416 -32.28     1.675     1.672   0.0371        114     68.27317
 7.77    463.4885  21.7699     325.1136    723.9955 -62.96     1.225     0.497   0.2017        115     60.37647
 4.28    473.0175  20.1523     1442.386    254.3179   2.68     1.614     1.461   0.0482        116     63.98056
 3.50    479.3950  19.5532     2504.473    922.8692  50.14     1.739     1.690   0.0251        117     57.84912
 4.18    479.2153  20.5183     1029.634   1276.8652  88.29     1.667     1.470   0.0670        118     63.51184
 6.15    468.1647  22.4232     178.1191   1198.3262 -25.50     0.748     0.647   0.2538        119     41.62955
 4.99    489.4695  20.9953     663.5603    839.3799 -85.63     2.556     0.978   0.1262        120     77.11064
 5.00    497.6219  19.5168     2589.926     82.7204 -14.39     2.586     2.443   0.0511        121     121.8614
 4.48    497.1443  19.6832     2221.807   1186.5587 -19.24     2.871     2.197   0.0532        122     108.7766
 5.27    477.6234  22.8737     117.6323   1167.6362 -32.52     1.409     0.553   0.4161        123     45.07568
 3.50    485.5691  20.6483     913.4594   1070.7618 -13.29     1.529     1.376   0.0588        124     49.49881
 3.50    480.5318  23.1083     94.76819    682.5682 -19.27     0.922     0.768   0.3373        125     29.43654
 4.19    532.4379  17.6028     15096.84    518.7012  17.05     4.773     2.905   0.0087        126     121.4234
 5.92    483.2268  23.3318     77.14172   1309.2524  17.63     0.842     0.349   0.4285        127     30.43467
 7.04    490.9982  23.1053     95.03333    424.4974  57.39     0.783     0.319   0.3851        128     33.69609
 4.88    505.6880  20.4032     1144.731    762.6530  29.68     1.866     1.696   0.0802        129     84.50584
 6.07    499.2487  21.9741     269.3784    366.5008  48.61     1.260     0.822   0.2414        130     59.87953
 3.50    503.6251  21.4791      424.964    863.6788  17.99     1.349     1.193   0.1082        131     42.34122
 4.09    516.8408  19.3056     3145.913   1461.1042  25.64     3.620     1.834   0.0354        132     102.4098
 6.42    511.4173  20.7422     837.7466    164.7969  15.76     2.143     1.304   0.1356        133     104.5751
 3.50    504.0078  24.0179     41.00464    442.7247 -86.66     0.742     0.697   0.6310        134     23.82674
 3.88    515.1553  21.2603     519.8397   1179.1432 -11.58     1.351     1.290   0.1040        135     49.79971
 3.70    520.8367  21.8228     309.6489    642.2778   1.63     1.390     1.164   0.1604        136     45.73375
 7.78    522.2990  23.4665     68.13879    854.1040 -68.91     0.955     0.691   0.9701        137     60.86934
 6.15    519.8758  22.6250     147.9154   1519.3197  20.54     0.920     0.674   0.3476        138     47.33893
 3.50    541.7062  20.1841     1400.756    999.6561 -28.16     1.600     1.510   0.0402        139      51.8572
 5.95    537.3939  21.9766     268.7498    404.2004  25.92     1.629     0.795   0.2660        140     65.82211
 3.50    560.4191  19.7988     1997.457   1041.6516  18.47     1.867     1.613   0.0321        141      59.1263
 4.94    572.7739  19.9468     1742.889     45.8521  54.85     2.131     1.762   0.0581        142     93.24687
 3.50    573.2246  20.3044     1253.776   1448.4399  29.55     2.441     1.841   0.0625        143     72.10451
 3.56    583.6990  18.1526     9098.421    319.1047  10.28     2.100     2.028   0.0085        144     70.85042
 3.50    582.1724  18.1605     9032.273    144.8971   4.15     2.088     1.978   0.0084        145     69.57373
 6.41    557.7811  22.8055     125.2534    778.6027  72.66     0.764     0.454   0.3108        146     35.84446
 4.04    598.1440  18.6490      5759.58    782.6210 -52.42     3.563     3.261   0.0251        147     133.2236
 5.76    566.2109  21.1946      552.259    139.6721 -56.27     1.261     1.043   0.1258        148     63.98056
 6.78    568.5834  22.6648      142.583    633.2251 -19.07     0.738     0.455   0.2854        149     37.47458
 6.26    578.0512  21.9153     284.3568   1001.7804 -28.13     1.682     0.817   0.2698        150     70.63924
 5.30    586.1544  21.1023     601.2974     75.9674  -8.76     1.328     1.229   0.1185        151     65.59474
 3.95   1002.9375  19.5021     2625.211    542.3767  41.74     1.957     1.741   0.0291        152     70.42743
 4.10   1598.2117  21.1683     565.8475    654.3484  -3.12     1.918     1.218   0.1033        153     53.83611
 3.70   1595.8204  21.8962     289.4092    373.5580  36.47     1.480     1.018   0.1691        154     45.07568
 6.34   1594.4935  21.6241     371.8306   1384.2332 -29.70     1.436     0.913   0.2038        155     69.78813
 4.80   1586.2162  20.4536     1092.846   1108.5291  10.82     1.709     1.419   0.0721        156     72.51772
 4.54   1567.9301  19.8442     1915.585     21.5654   3.80     1.823     1.751   0.0443        157     78.07336
 5.33   1567.0110  20.3438     1209.115    784.3434 -85.86     2.030     1.671   0.0853        158     94.99292
 5.50   1529.7546  23.3404     76.53003    733.4183 -70.72     0.745     0.453   0.4456        159     31.40109
 6.53   1516.6896  21.0982     603.5568   1546.3409 -54.01     1.328     1.063   0.1349        160     74.94915
 3.50   1508.4398  16.8232     30955.38    269.0288   0.55     2.425     2.347   0.0029        161     81.81102
 3.50    878.8604  21.9365     278.8809    960.9188 -38.71     1.204     1.126   0.1550        162     39.79474
 6.82    880.5679  23.2749     81.29102    670.7686  20.31     0.733     0.453   0.5006        163     37.47458
 8.15    878.4954  22.5441     159.3517    542.0081   1.12     0.795     0.500   0.3455        164     50.69172
 3.76    870.8542  19.5810     2441.173   1103.3297 -62.93     2.030     2.002   0.0326        165     73.33715
 4.19    868.9675  20.6980     872.5604    939.8438  48.58     1.862     1.435   0.0830        166     66.72382
 6.09    870.7626  22.5029     165.5206    643.2283 -45.21     0.935     0.438   0.2485        167     37.87114
 7.86    868.9410  24.5933     24.13782    454.3015  62.52     0.908     0.211   1.5359        168     34.13659
 3.50    861.9903  23.5589     62.57849   1554.1732 -54.13     0.917     0.472   0.4025        169     23.19124
