#   1 NUMBER                 Running object number                                     
#   2 EXT_NUMBER             FITS extension number                                     
#   3 FLUX_BEST              Best of FLUX_AUTO and FLUX_ISOCOR                          [count]
#   4 FLUXERR_BEST           RMS error for BEST flux                                    [count]
#   5 MAG_BEST               Best of MAG_AUTO and MAG_ISOCOR                            [mag]
#   6 MAGERR_BEST            RMS error for MAG_BEST                                     [mag]
#   7 X_IMAGE                Object position along x                                    [pixel]
#   8 Y_IMAGE                Object position along y                                    [pixel]
#   9 A_IMAGE                Profile RMS along major axis                               [pixel]
#  10 B_IMAGE                Profile RMS along minor axis                               [pixel]
#  11 THETA_IMAGE            Position angle (CCW/x)                                     [deg]
         1   1     11614.35     72.71211  17.8923   0.0068    657.0477     30.1164     1.724     1.669  73.64
         2   1      9149.43     158.3234  18.1513   0.0188    661.1644     14.7657     3.278     2.949 -73.80
         3   1      88125.7     82.44778  15.6920   0.0010    837.4538     20.6302     1.968     1.874 -18.43
         4   1     1840.284     77.12284  19.8926   0.0455   1653.3259     12.4910     1.509     1.350  10.54
         5   1      953.089     88.52211  20.6069   0.1009   1721.7688     10.4390     1.464     1.410  61.26
         6   1     470.7905     65.90095  21.3727   0.1520   1801.2411      6.1348     1.098     0.917   6.15
         7   1     290.4613     53.66148  21.8971   0.2006    478.2751      3.4211     0.955     0.547  57.56
         8   1      449.536      43.4538  21.4229   0.1050   1942.3970      2.5429     1.063     0.900  36.00
         9   1     270.1156      52.3253  21.9759   0.2104   1695.1222      3.2975     0.858     0.605 -27.07
        10   1     259.5739     50.48875  22.0191   0.2112    567.0191      3.5096     0.776     0.499  -3.13
        11   1     488.2999     84.70705  21.3331   0.1884   1171.0249     22.1657     1.287     0.869  18.75
        12   1     377.7833     42.90718  21.6117   0.1233    780.9230     26.7447     1.187     0.857  29.09
        13   1     427.9142     47.60125  21.4764   0.1208    596.0016     36.8438     1.318     0.958 -40.07
        14   1      881.395     51.41523  20.6919   0.0634    404.6731     39.2936     1.265     1.121  20.12
        15   1     359.2115     63.71577  21.6664   0.1926   1584.7249     33.9998     1.468     0.557 -13.29
        16   1     58541.63     81.58443  16.1361   0.0015   1269.9762     85.8547     1.911     1.891 -32.46
        17   1     129.3541      52.3253  22.7753   0.4393    845.2280     51.6162     0.768     0.447 -17.91
        18   1     172.6917     29.14969  22.4616   0.1833   1402.5680     58.2227     0.750     0.448 -69.38
        19   1     385.7476     61.45295  21.5890   0.1730    649.4369     60.9814     1.024     0.777   5.00
        20   1     907.4559     52.77445  20.6602   0.0632     71.5008     74.4120     1.279     1.234  58.09
        21   1     315.4662     58.29939  21.8074   0.2007     64.1719     70.1390     0.831     0.660 -45.43
        22   1     582.3693     59.50156  21.1418   0.1110   1290.6321     77.2234     1.244     1.003 -78.63
        23   1     512.8978     69.72947  21.2797   0.1476   1001.5175     76.9517     1.291     0.939  64.15
        24   1     239.2755     48.09454  22.1075   0.2183    652.4154     71.8037     0.763     0.448 -70.53
        25   1     895.5339     60.67992  20.6746   0.0736    133.9682     82.6870     1.507     1.137  31.72
        26   1     532.7295     54.53408  21.2385   0.1112   1473.5616     79.9842     1.548     1.032  31.92
        27   1     3080.418     117.4057  19.3333   0.0414    772.3903     96.4296     2.120     1.936 -80.16
        28   1     2191.624      76.5083  19.7029   0.0379    251.7277     94.5454     1.899     1.702 -26.42
        29   1     667.8483     72.38677  20.9931   0.1177    948.5580     92.5731     1.430     1.148  51.62
        30   1     2125.722     61.06766  19.7360   0.0312    271.4473     96.4131     1.493     1.361  33.63
        31   1     218.4159     53.21981  22.2066   0.2646   2037.4921     87.4975     0.502     0.498 -45.40
        32   1      2367.08     69.72947  19.6192   0.0320   1127.0879    108.9810     1.441     1.405   6.96
        33   1     1568.241     83.86695  20.0662   0.0581    242.1315    116.6449     2.145     1.787  69.61
        34   1     594.7469     60.67992  21.1189   0.1108   1288.2830    105.4231     1.213     0.972 -11.92
        35   1     162.2878     42.35352  22.5291   0.2834    657.9792    103.0334     0.615     0.610  84.03
        36   1     367.5714     64.81757  21.6414   0.1915    570.9848    102.9928     0.804     0.762  49.96
        37   1     383.1583     66.25813  21.5963   0.1878   1649.9435    108.8997     1.146     0.730  81.22
        38   1     759.6328     75.57713  20.8533   0.1080    311.4669    110.5352     1.650     1.055   3.46
        39   1     105.4048     23.80062  22.9976   0.2452    441.3784    105.2929     0.577     0.331 -41.39
        40   1     372.0851      66.9668  21.6282   0.1955    972.8634    109.1258     0.824     0.668  45.65
        41   1     432.2726     62.59459  21.4654   0.1573    838.3733    119.3548     1.267     0.899 -79.67
        42   1     838.9603     83.86695  20.7454   0.1086   2000.0966    120.3068     1.831     1.086  -2.21
        43   1     733.8123     78.33745  20.8908   0.1159   1180.5775    124.2795     1.506     1.117  39.60
        44   1     1959.259      60.2897  19.8246   0.0334   1288.7102    130.7124     1.481     1.379  20.00
        45   1     213.4421     47.10279  22.2316   0.2397   1215.8219    119.4008     0.732     0.455 -18.46
        46   1      55481.7     92.69012  16.1944   0.0018   1976.2317    158.3168     2.401     1.944   9.85
        47   1     531.7189     81.58443  21.2406   0.1666   1916.5909    129.5671     1.153     0.668 -49.59
        48   1     179.8805     53.66148  22.4173   0.3240     63.7818    127.8242     0.758     0.564  49.04
        49   1     50911.91     81.00375  16.2877   0.0017   1461.8472    165.6276     1.929     1.892 -22.42
        50   1     1490.615     68.36209  20.1214   0.0498   1304.9430    139.7430     1.343     1.290 -29.87
        51   1     756.9406     94.70535  20.8571   0.1359   1966.9725    137.6151     1.321     1.288 -54.24
        52   1     188.4401     37.63209  22.3668   0.2169     20.3309    134.1930     1.106     0.411 -77.12
        53   1     464.3478     78.33745  21.3877   0.1832    986.2656    146.3166     1.187     0.719 -82.02
        54   1     618.2355     87.17876  21.0769   0.1531   1535.4261    141.8608     1.258     0.713  18.99
        55   1     627.4093     83.58504  21.0609   0.1447    360.2078    150.0241     1.370     1.172 -89.79
        56   1     586.5728     80.71185  21.1340   0.1494     67.5159    151.2527     1.396     0.915  35.17
        57   1      1553.25     73.35845  20.0767   0.0513    580.5296    154.2880     1.459     1.214   0.53
        58   1     211.8652     49.54495  22.2396   0.2540   1893.7662    149.7461     0.846     0.350  72.00
        59   1     164.7325     43.99361  22.5128   0.2900   1522.4130    150.7870     0.772     0.445 -70.51
        60   1     356.4833     62.21637  21.6747   0.1895     17.5781    152.7524     0.752     0.451  70.54
        61   1     1820.816      108.417  19.9041   0.0647   1337.5020    172.4573     3.121     1.353  30.61
        62   1     478.2567     73.35845  21.3556   0.1666    661.2181    160.9331     1.295     0.938   8.43
        63   1     140.7004     36.35606  22.6840   0.2806   1246.4838    157.5224     0.522     0.476  44.85
        64   1     649.8591     77.12284  21.0227   0.1289    659.8331    169.0938     1.132     1.036 -69.07
        65   1     545.7574     70.06714  21.2123   0.1394    958.2466    169.9537     1.165     0.952 -25.39
        66   1     454.0267     68.70648  21.4121   0.1643    715.0145    173.3420     1.580     0.956 -73.92
        67   1     738.4915     56.23868  20.8839   0.0827    431.3717    173.1398     1.338     1.270  57.67
        68   1     2613.468     74.63435  19.5117   0.0310   1134.8331    183.0281     1.584     1.535 -81.50
        69   1     545.2834     51.87226  21.2132   0.1033    260.0934    176.3581     1.318     1.135 -89.79
        70   1     2177.524     89.84539  19.7099   0.0448   1444.7770    185.9651     1.870     1.499 -80.31
        71   1       228501     87.44908  14.6576   0.0004   1391.9797    225.8214     2.076     2.018 -31.00
        72   1     342.9865     68.01595  21.7166   0.2154   1544.3652    178.4478     0.992     0.633  84.63
        73   1     995.6309     82.73357  20.5595   0.0902   1046.6633    186.6141     1.310     1.246 -46.16
        74   1     501.8872      60.2897  21.3033   0.1305     55.9127    184.2463     1.283     1.081 -16.26
        75   1     276.3827     56.23868  21.9510   0.2210   1694.4958    180.2119     0.981     0.723   0.98
        76   1     271.5088     53.66148  21.9703   0.2146    794.7919    180.2352     0.867     0.345 -18.02
        77   1     162.4462     38.86626  22.5280   0.2598    773.5096    189.5328     0.513     0.486 -43.97
        78   1      593.088     89.31843  21.1220   0.1636   1160.1317    197.7422     1.550     0.646 -47.53
        79   1     749.0242     90.63008  20.8685   0.1314   1409.7397    203.5404     1.412     1.227 -85.04
        80   1     1989.107     144.9365  19.8081   0.0791   1651.0963    226.7756     3.330     1.323 -57.42
        81   1     2129.923     61.83583  19.7339   0.0315   1742.2407    213.3405     1.417     1.367 -62.89
        82   1     606.4199      85.2625  21.0978   0.1527   1978.4481    205.9597     1.165     0.922 -85.80
        83   1     524.5907     54.53408  21.2552   0.1129    280.5000    206.2904     1.303     1.142 -20.73
        84   1     218.3608     53.21981  22.2068   0.2647   1333.4835    199.4880     0.501     0.498  46.14
        85   1     153.4121     29.14969  22.5901   0.2063   1355.4971    203.1218     0.717     0.500 -88.97
        86   1     368.0233     65.90095  21.6401   0.1945    944.3311    202.8714     0.773     0.657  29.64
        87   1     514.4814     73.35845  21.2764   0.1548   1764.7341    206.5332     1.147     0.975 -30.08
        88   1     272.7856     54.96519  21.9652   0.2188   2043.0558    204.0677     0.923     0.530  45.76
        89   1     499.6415     64.45239  21.3081   0.1401    162.1348    210.1978     1.176     0.803 -68.72
        90   1     31868.02     77.42828  16.7964   0.0026   1916.0420    238.9135     1.829     1.783  54.74
        91   1     391.0715     77.42828  21.5741   0.2150    451.0806    220.1382     1.505     0.634 -81.82
        92   1      467.963     70.73766  21.3793   0.1642    970.7880    222.4314     1.005     0.806 -59.15
        93   1     628.6964     69.39015  21.0587   0.1199    697.9222    234.9033     1.420     0.989 -75.19
        94   1     185.5125     48.58282  22.3838   0.2844   1615.3931    225.7760     0.754     0.454 -72.57
        95   1     555.7388     74.94993  21.1926   0.1465    961.8195    226.0213     0.935     0.763   7.19
        96   1     171.3867     45.05386  22.4698   0.2855    676.6063    226.7995     0.766     0.445  71.03
        97   1      858.125     83.30219  20.7209   0.1054   1333.7733    236.5676     1.270     1.197 -30.66
        98   1     267.5698     47.10279  21.9862   0.1912    472.3334    231.4575     1.051     0.640  85.61
        99   1     83122.86     84.42794  15.7555   0.0011   1791.5062    272.8190     1.998     1.950  12.69
       100   1     884.9061     86.36271  20.6875   0.1060   1786.9636    238.4249     1.618     1.137  22.56
       101   1     1115.893     126.3153  20.4357   0.1229   1185.5620    238.6721     1.873     1.089  -3.63
       102   1     472.0753     69.39015  21.3698   0.1596    724.0305    238.9028     1.110     0.931   5.14
       103   1     577.9773     80.12484  21.1500   0.1506   1318.6328    243.8862     0.964     0.673 -19.82
       104   1     148.8391     24.77248  22.6230   0.1808     67.2316    234.9470     0.663     0.421  87.31
       105   1     699.2047     86.90759  20.9433   0.1350     66.0397    248.1083     2.154     1.118  29.50
       106   1     511.1317     80.12484  21.2834   0.1702   1173.2386    243.7088     1.006     0.875 -68.59
       107   1     304.0388     53.66148  21.8475   0.1917   1517.1223    246.8216     0.816     0.680  43.61
       108   1     197.4423     44.52689  22.3162   0.2449   1597.3138    244.3388     0.571     0.337 -46.17
       109   1     113.0145     31.48527  22.9219   0.3026      4.3211    244.6735     0.569     0.338  45.26
       110   1     959.8967     105.7723  20.5992   0.1197    241.5711    255.3616     1.360     1.102 -89.87
       111   1     1526.526     77.12284  20.0955   0.0549   1766.4785    261.0949     1.375     1.281  79.82
       112   1     238.8284     46.08971  22.1096   0.2096    852.0000    251.0366     0.849     0.289  90.00
       113   1     314.4896     65.90095  21.8108   0.2276    947.3411    253.8339     0.739     0.641  20.92
       114   1     249.4375     54.53408  22.0624   0.2374    506.9341    254.1414     0.857     0.666  41.18
       115   1     393.2681     78.63817  21.5681   0.2172   1742.8967    259.5561     1.197     0.721 -80.43
       116   1     244.6506     50.95409  22.0834   0.2262    459.0115    273.9989     0.877     0.539 -46.04
       117   1     7434.942     70.06714  18.3766   0.0102   1943.3281    293.8185     1.687     1.577  23.91
       118   1     756.2297     56.65682  20.8581   0.0814    709.2502    290.8177     1.405     1.243 -45.90
       119   1     5092.832     68.36209  18.7874   0.0146   1460.3346    298.8077     1.606     1.559 -80.84
       120   1       1433.4     60.67992  20.1639   0.0460   1756.3074    298.8064     1.458     1.391 -13.53
       121   1     799.2576     86.63558  20.7981   0.1177   1995.5612    294.7017     1.478     1.374 -16.66
       122   1     210.0007     45.57473  22.2492   0.2357   1505.1132    286.8722     0.833     0.653  49.53
       123   1     1686.099     65.54181  19.9876   0.0422   1625.9421    300.8787     1.507     1.357   6.11
       124   1     61088.95     81.58443  16.0899   0.0015    288.5573    331.0763     1.949     1.904  26.13
       125   1     872.3916     89.05378  20.7030   0.1109   1962.8390    313.1156     2.152     0.923  89.33
       126   1     1112.215     83.58504  20.4393   0.0816   1282.1536    318.4441     1.484     1.235 -58.44
       127   1     521.8929     75.57713  21.2608   0.1573   1911.7090    316.7584     1.168     1.106 -87.82
       128   1     291.5514     56.23868  21.8930   0.2095    528.1438    315.9109     0.942     0.719 -77.66
       129   1     356.6844     58.29939  21.6741   0.1775   1145.5018    313.0070     0.798     0.313 -57.91
       130   1     1740.411     126.8747  19.9532   0.0792   1109.8745    341.3083     1.953     1.493 -80.64
       131   1     457.5658     66.61341  21.4036   0.1581   1205.6371    329.5369     1.181     0.768 -53.21
       132   1     3408.457     128.9048  19.2234   0.0411    165.0791    349.5454     2.390     1.893 -29.32
       133   1     297.2987     47.60125  21.8718   0.1739   1312.0833    341.1891     1.135     0.729  80.55
       134   1      932.915     90.63008  20.6302   0.1055   1995.2061    348.7218     1.366     1.291 -11.00
       135   1     845.7898      99.0899  20.7366   0.1272   1440.8413    345.6767     1.360     1.180 -23.12
       136   1     262.7476     54.53408  22.0059   0.2254   1267.7454    341.1177     1.105     0.521 -36.23
       137   1     223.4772     49.06625  22.1817   0.2384    719.7139    343.0191     1.013     0.298 -39.29
       138   1     262.3458     44.52689  22.0076   0.1843    246.9862    340.6752     0.916     0.210 -28.01
       139   1     43373.35     78.93774  16.4617   0.0020    500.7349    376.8674     1.881     1.828   2.82
       140   1     2285.988     68.01595  19.6571   0.0323   1438.6000    360.7376     1.570     1.483  31.16
       141   1     3130.307     110.7859  19.3158   0.0384   1583.4813    369.3422     3.161     1.535  29.53
       142   1     265.7419     53.66148  21.9936   0.2193    592.6671    354.5836     1.064     0.711  26.93
       143   1     439.9862     68.36209  21.4462   0.1687   1705.4504    355.7302     1.031     0.986 -24.63
       144   1     1692.324     130.9034  19.9836   0.0840   1942.5688    367.5784     2.363     1.439 -27.20
       145   1      603.549     68.36209  21.1030   0.1230    919.4589    359.7424     1.336     1.091 -20.04
       146   1     14369.31     197.2247  17.6612   0.0149   1606.8030    424.1392     5.085     2.774  89.18
       147   1     4849.471      70.4032  18.8405   0.0158   1989.5961    372.3214     1.705     1.599  26.74
       148   1     327.6301     42.35352  21.7663   0.1404   1031.4125    360.3186     1.028     0.799  26.79
       149   1     259.5742     49.54495  22.0191   0.2073     89.5146    357.4748     0.503     0.497 -42.96
       150   1     1736.623     106.4396  19.9555   0.0666   1928.3552    373.1256     1.814     1.633  25.72
       151   1      549.061     67.66804  21.2057   0.1338   1721.2968    365.7494     1.186     0.936  45.13
       152   1     328.5846     64.08514  21.7632   0.2118    529.9297    364.6712     1.040     0.749  75.44
       153   1     212.7144     51.87226  22.2353   0.2648    691.5233    359.5166     0.507     0.492  45.48
       154   1     538.7694     80.12484  21.2263   0.1615    521.9629    369.0598     0.979     0.695 -14.24
       155   1     619.1504     65.54181  21.0753   0.1150   1303.9401    375.3856     1.196     1.004  30.35
       156   1     10069.77     131.9809  18.0472   0.0142   1470.3716    405.4355     3.156     2.824  58.82
       157   1     1523.539     95.94338  20.0976   0.0684   1866.7634    390.2851     2.486     1.550  41.25
       158   1     221.7695     53.66148  22.1900   0.2628    699.2410    373.2453     0.865     0.353  72.18
       159   1     136.6802     38.86626  22.7155   0.3088    789.5173    370.4958     0.514     0.486  45.29
       160   1     223.5945     51.41523  22.1811   0.2497   1899.3389    379.8829     0.943     0.676  23.98
       161   1     132.3081     35.70094  22.7508   0.2930    643.6630    378.6522     0.585     0.329 -45.41
       162   1     262.4111     57.48397  22.0073   0.2379   1935.1663    384.1840     0.770     0.566  42.44
       163   1      324.735     63.71577  21.7760   0.2131    873.4873    388.1184     0.873     0.662  41.71
       164   1     272.8423     61.45295  21.9650   0.2446   1670.0043    392.7554     0.698     0.430   0.20
       165   1     307.0452      60.2897  21.8368   0.2132   1330.2388    399.4329     0.742     0.454  19.79
       166   1     338.8032      66.9668  21.7299   0.2147   1432.3708    408.1239     0.921     0.688 -20.83
       167   1     186.7838     43.99361  22.3764   0.2558   1727.4209    409.2238     0.755     0.449  70.19
       168   1     439.3058     61.83583  21.4479   0.1529    705.1246    412.3467     1.267     0.780 -11.00
       169   1     4765.559     105.5489  18.8595   0.0241   1856.6848    435.7943     2.169     2.092 -24.67
       170   1     5389.082     69.04916  18.7260   0.0139   1700.6196    429.3987     1.621     1.611  63.78
       171   1     460.1073     55.39294  21.3976   0.1307   1422.8912    418.3457     1.114     0.846  82.67
       172   1     391.7443     59.10355  21.5723   0.1638   1623.0413    418.9967     0.990     0.834 -66.21
