#   1 KRON_RADIUS            Kron apertures in units of A or B                         
#   2 MAGERR_APER            RMS error vector for fixed aperture mag.                   [mag]
#   3 Y_IMAGE                Object position along y                                    [pixel]
#   4 X_IMAGE                Object position along x                                    [pixel]
#   5 THETA_IMAGE            Position angle (CCW/x)                                     [deg]
#   6 FLUX_APER              Flux vector within fixed circular aperture(s)              [count]
#   7 A_IMAGE                Profile RMS along major axis                               [pixel]
#   8 B_IMAGE                Profile RMS along minor axis                               [pixel]
#   9 FLUXERR_APER           RMS error vector for aperture flux(es)                     [count]
#  10 MAG_APER               Fixed aperture magnitude vector                            [mag]
#  11 NUMBER                 Running object number                                     
 4.42   0.0037     54.0685     63.6034   6.80     38310.98     4.384     4.012     129.0008  16.5917          1
 3.74   0.0245     17.4401    984.8297 -88.25     5713.618     3.758     1.712     129.0113  18.6577          2
 3.82   0.0306     18.7961     91.1034 -67.25     4576.953     1.571     1.479      128.943  18.8986          3
 3.50   0.0138     15.4618   1445.5586 -65.93     10181.27     1.661     1.588     128.9692  18.0305          4
 7.63   0.2477      4.3684    145.1962  17.69     471.1894     0.755     0.445     107.4521  21.3670          5
 5.74   0.2181     18.0265    384.0149  44.75     642.3648     0.889     0.533     129.0113  21.0305          6
 4.09   0.1526     25.4566    366.9559 -30.76     917.9751     1.204     1.016      128.985  20.6429          7
 3.50   0.0028     60.5961   1078.2490  78.52     49477.04     2.008     1.895     128.9955  16.3140          8
 8.72   0.2511     34.3224    326.3238 -44.93     557.7896     0.568     0.338     128.9798  21.1838          9
 7.75   0.4243     43.0166    915.4982 -57.51     329.9698     0.786     0.317     128.9219  21.7538         10
 3.50   0.0030     80.9643    537.4206 -64.49     47065.75     1.931     1.852      129.027  16.3682         11
 4.31   0.0750     76.0022    127.6434   4.16     1867.862     1.252     1.146     129.0008  19.8716         12
 7.33   0.5246     82.8180    421.3965 -70.68     267.0468     0.768     0.443      129.006  21.9835         13
 6.30   0.1521     91.1868    376.8293 -45.35     921.2108     1.373     1.033      129.006  20.6391         14
 3.50   0.0020    122.5955    788.9210 -60.42     69764.91     2.028     1.903     128.9587  15.9409         15
 4.19   0.0471     97.3835     55.9652  26.66     2975.153     1.408     1.368     129.0323  19.3662         16
 6.93   0.2215     99.0023    452.5196 -26.45     632.2278     1.068     0.660     128.9587  21.0478         17
 3.50   0.0036    163.1339   1468.1357 -64.40     39433.32     1.915     1.824     128.9587  16.5603         18
 3.50   0.0155    171.1503    877.1309 -55.12     9023.606     1.658     1.594     128.9482  18.1615         19
 4.56   0.2268    165.6820   1445.5413  19.58     617.6019     1.115     0.930     128.9692  21.0732         20
 5.47   0.2884    167.5449    104.2041 -51.07     485.7087     0.985     0.937      128.985  21.3341         21
 7.86  36.2962    170.3342   1368.3384 -44.83     3.858346     0.580     0.332     128.9535  26.5840         22
 4.64   0.1350    193.3883   1350.3031 -37.44     1037.212     1.279     1.002     128.9062  20.5103         23
 4.72   0.0328    211.6115    827.4163  -9.06     4267.735     2.964     1.698     129.0113  18.9745         24
 3.50   0.0830    207.5168    548.9227 -57.89     1688.045     1.377     1.255     128.9692  19.9815         25
 3.50   0.1105    213.0179   1305.8772  83.84     1267.306     1.320     1.246     128.9535  20.2928         26
 6.28   0.3057    211.4447    684.7709 -89.13     458.2093     0.978     0.724      128.985  21.3973         27
 5.89   0.0349    231.0868    561.7986 -14.57     4016.983     2.541     2.368     128.9482  19.0402         28
 4.14   0.0673    224.5207   1225.8545 -66.21     2082.103     1.409     1.318     128.9692  19.7537         29
 3.97   0.2749    223.2465    774.6445 -11.22     509.4916     1.088     0.911     128.9798  21.2822         30
 3.50   0.0013    260.5662    997.2287 -62.78     106067.1     2.051     1.951     129.0218  15.4860         31
 3.50   0.0016    266.7018     67.3902 -79.22     89636.48     2.031     1.922     128.9219  15.6688         32
 6.02   0.0793    244.4016    112.8097  87.30     1766.577     1.624     1.215     129.0165  19.9322         33
 9.03   0.3646    239.6895    838.6417 -42.97     384.1576     0.578     0.332     128.9587  21.5887         34
 4.92   0.0361    256.2684    612.7941 -36.28     3885.153     1.973     1.617     129.0113  19.0765         35
 7.04   0.1448    251.2776    107.5645 -70.48     967.3671     0.725     0.459      128.943  20.5860         36
 7.50   0.2242    252.7829   1372.4308 -69.94     624.9072     0.740     0.453      129.006  21.0605         37
 3.50   0.0067    288.3456   1486.2816 -50.17     20921.83     1.773     1.704     128.9692  17.2485         38
 7.78   0.7063    271.3754   1273.7629 -17.73     198.3781     0.755     0.447     129.0165  22.3063         39
 3.50   0.0329    282.7355   1522.1678 -58.33     4259.394     1.479     1.402     128.9745  18.9766         40
 3.50   0.0091    303.9822    201.5967 -63.34     15471.58     1.727     1.629      129.006  17.5762         41
 6.32   0.1889    294.4589   1475.2285 -88.93     741.6055     0.931     0.715     128.9955  20.8746         42
 4.62   0.5000    302.9989    563.5146 -82.90     280.1143     1.088     0.954     128.9587  21.9317         43
 3.50   0.0142    322.8688    697.1341 -28.33      9888.54     1.646     1.599     128.9482  18.0622         44
 8.72   0.2341    308.5074     85.4808 -46.76     598.3378     0.502     0.497     128.9692  21.1076         45
 6.96   0.1817    322.6497    641.1227 -76.26     770.9824     1.652     0.634     128.9692  20.8324         46
 4.68   0.0824    328.1545    595.1946  18.09     1699.333     1.444     1.406     128.9903  19.9743         47
 8.15   6.5373    330.2997   1545.6658  43.19     21.42298     0.563     0.340     128.9587  24.7228         48
 5.77   0.3346    333.0812     93.3310 -24.06     418.6103     0.890     0.687     128.9692  21.4955         49
 4.11   0.1875    350.8782     54.3166 -75.74      747.141     1.162     1.104      128.964  20.8665         50
 3.50   0.0132    368.9767    760.8846 -60.14      10587.4     1.612     1.558      128.943  17.9880         51
 3.50   0.0981    362.0957   1500.1870   6.06     1426.504     1.328     1.252     128.9062  20.1643         52
 4.61   1.7794    361.5793   1033.8596 -67.50     78.71771     0.895     0.685     128.9798  23.3098         53
 3.50   0.0027    396.0154    231.2810 -64.04     51874.53     1.903     1.853      128.943  16.2626         54
 7.32  99.0000    374.2171   1084.0031 -53.81     -48.5082     0.820     0.504     129.0113  99.0000         55
 3.50   0.0205    397.8886   1460.9868 -46.65     6820.812     1.580     1.511     128.9219  18.4654         56
 3.50   0.0170    398.9887    354.3897 -62.43      8230.37     1.604     1.531     129.0113  18.2615         57
 3.50   0.1161    394.5604   1088.5067 -26.74     1205.678     1.300     1.290      128.943  20.3469         58
 8.67   0.2685    398.4763    627.4810 -41.88     521.6854     0.500     0.499     128.9745  21.2565         59
 3.50   0.0083    438.7730    251.9263 -49.63     16924.03     1.730     1.662     128.9535  17.4787         60
 5.26   0.1301    421.8422    158.7648  45.21     1077.178     1.306     1.074     128.9955  20.4693         61
 3.50   0.0010    461.8566    807.3768 -53.44     146571.6     2.076     1.959     128.9955  15.1349         62
 9.33   0.1545    427.0000    433.4613   0.00     906.4254     1.139     0.289     128.9798  20.6567         63
 6.34   0.8225    427.6794   1179.1434  28.12     170.2828     0.859     0.608     128.9692  22.4721         64
 3.50   0.1621    433.6892   1421.8652 -43.63     864.2606     1.242     1.193      128.985  20.7084         65
 6.14   0.2604    434.9740    150.9762  35.97      538.054     0.787     0.769     129.0323  21.2229         66
 3.58   0.0250    451.1102     21.1536 -47.02     5606.376     1.614     1.488     128.9692  18.6783         67
 4.03   0.4847    440.7337    305.4698 -18.22     288.9401     0.972     0.956     128.9535  21.8980         68
 5.05   0.0242    468.5993    850.3436  23.02     5791.434     6.433     1.640      128.985  18.6430         69
 5.98   0.1536    446.1450    122.1041 -41.00     911.9427     1.212     1.029     128.9535  20.6501         70
 3.58   0.0225    458.6724     34.3886 -61.55     6230.098     1.548     1.448     128.9745  18.5638         71
 7.29  99.0000    453.6877   1533.3097  45.14    -110.5743     0.558     0.343      128.964  99.0000         72
 3.81   0.0821    464.5611    468.4572 -57.86     1706.305     1.359     1.286      128.985  19.9699         73
 5.54   1.3667    461.9597   1096.1882   3.95     102.5198     0.902     0.755     129.0218  23.0230         74
 4.20   0.0890    472.1333    254.1283 -70.75     1573.235     1.310     1.217     128.9692  20.0580         75
 3.74   0.0639    472.9408    734.7563 -45.69     2191.973     1.396     1.270     128.9745  19.6979         76
 3.50   0.0533    478.8139    922.8199 -14.88     2626.889     1.423     1.385     129.0113  19.5014         77
 3.99   0.1600    478.7661   1276.7504 -60.77     875.6013     1.123     1.085     128.9903  20.6942         78
 3.50   0.1768    484.9320   1070.4031 -40.75     792.3687     1.255     1.171     129.0113  20.8027         79
 7.01  10.2251    479.6902    682.3506  43.17      13.6988     0.574     0.335     128.9798  25.2083         80
 5.51   0.0552    496.9702     82.7276  52.95      2536.35     2.015     1.747     128.9692  19.5395         81
 5.03   0.0612    496.5617   1186.5355 -13.80      2289.33     2.528     1.476     128.9745  19.6507         82
 8.56   0.3107    489.2356    839.2355  71.84     450.8716     0.854     0.348     129.0113  21.4149         83
 6.20   1.1994    499.0030    365.9965 -43.15     116.8283     0.888     0.533      129.027  22.8811         84
 4.04   0.2195    502.8415    863.5355 -75.78     638.0643     1.133     0.943      128.964  21.0378         85
 5.99   0.1387    505.1446    762.7915  -0.61     1009.962     1.307     1.252      129.006  20.5392         86
 4.42   0.0477    516.1101   1460.7433  23.86     2936.293     3.654     1.299     128.9587  19.3805         87
 4.61   0.0084    532.2678    518.7524  19.75     16645.21     3.813     2.027     128.9535  17.4968         88
 6.94   0.1600    510.6393    165.5776  -9.62     875.8211     0.956     0.809     129.0165  20.6940         89
 3.66   0.1891    514.4973   1179.0811 -24.64      740.759     1.149     0.942      128.964  20.8758         90
 6.35   0.3552    520.1909    641.4281 -43.11     394.4055     1.057     0.724      128.985  21.5601         91
 3.83   0.0842    540.9631    999.7307 -73.14         1664     1.365     1.234     128.9745  19.9971         92
 3.91   0.0593    559.8441   1041.5250 -26.72     2362.021     1.442     1.386     128.9535  19.6168         93
 6.42  99.0000    556.6709    778.3320  44.87    -154.1217     0.575     0.335     128.9535  99.0000         94
 4.72   0.0883    571.7558     45.6415  63.90     1585.909     1.741     1.230     128.9798  20.0493         95
 4.57   0.1034    572.0264   1447.5919  14.46     1354.209     1.937     1.377      128.985  20.2208         96
 5.30   0.2009    565.7164    139.8193 -69.04     697.0455     0.941     0.673     128.9377  20.9418         97
 3.50   0.0144    581.4633    144.8291 -62.35     9733.944     1.656     1.556     128.9692  18.0793         98
 3.50   0.0142    582.9964    319.0084 -53.18      9852.96     1.651     1.591     129.0218  18.0661         99
 7.46   0.2535    577.1537   1001.2869 -58.49     552.5885     0.881     0.596     128.9692  21.1940        100
 4.86   0.0232    597.7661    782.5640 -41.75     6035.398     2.705     2.510     129.0165  18.5982        101
 4.98   0.3261    585.4760     75.9195  -0.34     429.4548     1.097     0.935     128.9745  21.4677        102
 4.84   0.1218   1000.7208   1273.7206 -39.29     1150.236     1.143     1.094     128.9798  20.3980        103
 5.83   0.1035   1598.2870    655.0114 -32.50     1058.377     1.541     0.993     100.8673  20.4884        104
 5.92   0.1431   1595.7097    374.0864 -77.65     840.6896     0.996     0.765     110.7507  20.7384        105
 3.95   0.0500   1543.5162    654.6589 -29.66     2803.754     1.408     1.265     128.9745  19.4306        106
 3.76   0.0346   1542.6946    135.1593 -40.42     4052.197     1.487     1.397     128.9324  19.0308        107
 7.62   0.1534   1516.8324   1547.2616  58.78     912.9506     0.877     0.603      128.985  20.6489        108
 3.50   0.0042   1508.0348    269.3838 -55.01     33470.64     1.794     1.703     129.0323  16.7383        109
 4.68  99.0000   1066.4927   1597.0061   0.05    -335.7014     0.774     0.500     105.9595  99.0000        110
 6.29   0.1052    981.7812    797.9048 -56.74     1331.455     1.231     1.130     128.9167  20.2392        111
 6.33   0.1434    979.1254    452.8248  46.81     976.6841     0.825     0.671     128.9587  20.5756        112
 5.67   0.3941    965.9650    416.2868 -79.53     355.2411     0.732     0.686     128.9272  21.6737        113
 6.78   0.1036    952.1573    654.2010  68.62     1351.851     1.200     0.943     128.9955  20.2227        114
 5.19   0.6823    948.7294    445.0580 -10.35     205.2749     0.736     0.667     128.9587  22.2692        115
 4.22   0.0623    939.9414   1067.0508 -70.35     2249.315     1.360     1.230     128.9587  19.6699        116
 7.71   0.1466    939.0228    516.0239  42.72     955.8619     0.901     0.531     129.0323  20.5990        117
 4.57   0.0919    929.1133   1322.3604 -58.94     1523.523     1.196     1.135     128.9535  20.0929        118
 4.95   0.1185    913.7016    838.4946  -3.37      1181.67     1.224     1.086      128.943  20.3688        119
 5.65   0.1857    913.0289   1000.9686  21.73     754.4443     0.786     0.778     129.0375  20.8559        120
 3.50   0.0223    901.2295    302.7910 -55.24     6293.003     1.580     1.492     129.0008  18.5529        121
 5.37   0.0851    897.0111    538.4183   3.31      1647.14     1.634     1.328     129.0113  20.0082        122
 3.50   0.0011    881.0668   1592.5131 -59.76     117933.5     2.045     1.937      120.785  15.3709        123
 6.18   0.2880    889.6179    325.1284  22.81     486.3687     1.308     0.827     128.9692  21.3326        124
 5.72   0.0902    886.5520   1500.2416  80.29     1553.764     1.169     1.105     128.9903  20.0715        125
 6.78   0.4481    885.5970    339.2297 -18.95     312.5945     0.760     0.448     128.9745  21.8125        126
 5.03   0.1455    878.3695    960.6810  48.93      962.533     1.058     0.941     128.9482  20.5915        127
 6.79   0.1762    894.8953   1425.8496 -46.45     795.0387     0.836     0.667     128.9587  20.7990        128
 4.77   0.0408    870.2202   1103.6705 -63.77     3432.775     1.809     1.571     128.9692  19.2109        129
 6.16   0.1001    868.7444    939.5903  23.20     1398.941     1.548     1.092      129.006  20.1855        130
 7.69   0.2116    870.4854    643.4911 -44.30     661.7459     0.503     0.497     128.9535  20.9983        131
 5.87   0.1152    859.0919   1339.9360 -74.74      1215.64     1.235     0.717     128.9692  20.3380        132
 5.39   0.0931    844.1019   1106.1355  25.15     1503.925     1.367     1.215      128.964  20.1069        133
 5.61   0.2109    845.7770   1063.5760 -17.33     664.2762     0.963     0.947      129.027  20.9941        134
 3.50   0.1345    837.3989    298.7010 -40.98     1040.823     1.272     1.134     128.9272  20.5066        135
 7.73   0.6752    837.6659   1520.3196  45.67     207.4129     0.572     0.336      128.964  22.2579        136
 5.79   0.1742    836.6163    818.9075 -66.70     803.7589     0.875     0.700     128.9219  20.7872        137
 3.65   0.0198    823.7595    654.3607 -56.43     7057.787     1.597     1.503      128.964  18.4283        138
 3.59   0.0216    803.8754   1378.6185 -23.98     6475.197     1.617     1.547      128.964  18.5219        139
 3.50   0.0077    799.3028    695.5850 -86.57     18206.86     2.463     1.730     128.9062  17.3994        140
 3.54   0.0581    801.5685     41.0996 -41.06     2409.524     1.382     1.301     128.9009  19.5952        141
 4.75   0.0507    774.8555   1427.3445 -88.36       2763.4     2.391     1.653      128.964  19.4464        142
 4.28   0.1122    743.5651    556.2689 -45.82     1248.536     1.295     1.189      128.985  20.3090        143
 4.74   0.1630    738.9188   1157.9471  -3.17     859.0894     1.070     0.939     128.9745  20.7149        144
 5.37   0.1527    736.9377    649.5377 -86.45     916.9514     1.077     0.943      128.964  20.6441        145
 3.50   0.0020    727.4247    848.3139 -54.55     70941.24     2.008     1.911      128.943  15.9228        146
 4.90   0.1037    728.1851   1178.1742 -80.75     1351.552     1.243     1.150     129.0008  20.2229        147
 7.12   0.3093    722.0979   1394.8606  45.96     452.7632     0.838     0.667     128.9587  21.4103        148
 4.19   0.0937    716.6962    808.2401 -50.75      1494.33     1.292     1.144     128.9167  20.1139        149
 5.08   0.0836    709.6812   1163.6775 -48.42     1675.441     1.334     1.221     128.9745  19.9897        150
 4.65   0.0786    705.1537   1339.0634 -27.12     1780.753     1.496     1.352      128.964  19.9235        151
 4.23   0.0462    703.4728    952.2607 -69.96     3032.121     1.474     1.411     128.9745  19.3456        152
 6.01   0.2753    699.8141    582.5355  -0.44     508.9032     1.345     0.664      128.985  21.2834        153
 7.05   0.1214    692.6078   1213.5953  47.11     1154.152     1.115     0.853     129.0323  20.3943        154
 7.21   0.1481    687.8056   1213.6979 -68.51     945.1873     1.382     0.774     128.9377  20.6112        155
 3.81   0.0751    686.3661    644.1091  89.50     1864.754     1.318     1.281     128.9324  19.8734        156
 5.93  99.0000    688.3208    130.7132  47.08    -382.6801     0.551     0.345     128.9745  99.0000        157
 3.50   0.0021    649.1243   1464.2986 -56.87     68298.61     1.953     1.857     128.9587  15.9640        158
 4.84   0.2205    655.5063    870.8816  18.12     635.2454     1.037     0.930     128.9587  21.0426        159
 5.08   3.4574    646.8604    652.8275  47.13     40.51718     0.745     0.564     128.9903  24.0309        160
 4.74   0.2245    631.6495    805.8071  87.59     623.9839     1.060     0.900     129.0008  21.0621        161
 3.78   0.4404    624.1699   1581.3268 -34.90     317.9949     1.226     1.004      128.964  21.7939        162
 7.93   0.1733    618.9815   1150.5139 -89.29     807.8309     0.786     0.500     128.9324  20.7817        163
 5.70   0.0989   1546.9938    863.4224  88.62     1415.792     1.271     1.102     128.9955  20.1725        164
 3.79   0.0773   1571.4199     92.6815 -44.95     1811.593     1.343     1.258     128.9535  19.9048        165
 3.50   0.2476   1585.8159   1108.8416 -44.59     565.9125     1.164     1.129     129.0375  21.1681        166
 4.26   0.0510   1567.4658     22.0305 -33.85     2747.658     1.446     1.283     128.9745  19.4526        167
 4.91   0.0838   1562.1361    861.4753  12.10     1672.252     1.289     1.104     128.9745  19.9917        168
 6.09   0.0640   1566.8246    784.6442 -81.13     2188.538     1.517     1.233     129.0113  19.6996        169
