#   1 KRON_RADIUS            Kron apertures in units of A or B                         
#   2 MAGERR_APER            RMS error vector for fixed aperture mag.                   [mag]
#   3 Y_IMAGE                Object position along y                                    [pixel]
#   4 X_IMAGE                Object position along x                                    [pixel]
#   5 THETA_IMAGE            Position angle (CCW/x)                                     [deg]
#   6 FLUX_APER              Flux vector within fixed circular aperture(s)              [count]
#   7 A_IMAGE                Profile RMS along major axis                               [pixel]
#   8 B_IMAGE                Profile RMS along minor axis                               [pixel]
#   9 FLUX_RADIUS            Fraction-of-light radii                                    [pixel]
#  10 FLUXERR_APER           RMS error vector for aperture flux(es)                     [count]
#  11 MAG_APER               Fixed aperture magnitude vector                            [mag]
#  12 NUMBER                 Running object number                                     
 4.66   0.0000     53.3701     63.9065   0.33     27963.46     5.346     4.847     13.118  0.006427984  16.9335          1
 4.79   0.0000     16.7161    985.4154 -86.84     4449.556     3.984     2.201      6.830   0.00643235  18.9292          2
 5.07   0.0000     18.1894     91.5415  86.21     4215.997     2.215     2.110      1.142  0.006434532  18.9877          3
 3.50   0.0000     14.9013   1446.0841 -41.38     11056.42     2.448     2.348      1.452  0.006423614  17.9410          4
 3.50   0.0000     60.0040   1078.7539 -68.39     39838.87     2.944     2.936      1.777  0.006434532  16.5492          5
 7.01   0.0000     25.0118    367.4980 -87.68     803.2972     1.484     1.238      1.063  0.006427256  20.7878          6
 3.50   0.0000    182.2392   1107.8169 -37.57     654181.1     4.759     4.425      6.464  0.006433078  13.5108          7
 8.46   0.0000     34.7508   1109.7596  72.02     370.8037     0.859     0.352      3.770   0.00643235  21.6271          8
 3.50   0.0000     80.3017    537.8538 -63.57     35687.66     2.884     2.811      1.758  0.006424343  16.6687          9
 5.64   0.0000     75.2082    128.0785   7.55     1749.633     1.848     1.579      1.187   0.00643235  19.9426         10
 3.50   0.0000    122.0068    789.4358 -48.27     53124.27     3.024     2.920      1.792  0.006431622  16.2368         11
 5.48   0.0000     96.8864     56.4073 -71.89     2567.649     1.997     1.926      1.122  0.006430167  19.5262         12
 7.78   0.0000     90.1377    376.6794 -84.05     667.6459     1.663     0.811      4.390  0.006426528  20.9886         13
 3.50   0.0000    193.6548    318.2545 -64.86     181231.8     3.604     3.206      2.066  0.006430895  14.9044         14
 8.31   0.0000     98.4899    452.9708   1.55     471.3648     0.801     0.500      3.447  0.006428712  21.3666         15
 3.50   0.0000    162.6065   1468.6003 -48.91     32927.45     2.857     2.740      1.802  0.006427984  16.7561         16
 4.30   0.0000    170.5437    877.6212 -24.83     9927.326     2.450     2.384      1.261  0.006433078  18.0579         17
 4.81   0.0000    234.9494    403.9689 -40.42     24951.19     6.462     5.517     17.035  0.006433078  17.0573         18
 7.66   0.0000    166.7667    104.6338 -51.15     586.5944     1.190     0.814      1.145  0.006433805  21.1292         19
 7.78   0.0000    165.0963   1446.3479 -19.74     682.4932     0.931     0.682      1.581  0.006425071  20.9648         20
 7.36   0.0000    192.8807   1350.2953 -39.52     978.8196     1.495     1.122      8.219  0.006425071  20.5732         21
 5.87   0.0000    211.0185    828.4678  -4.65     3042.816     3.453     2.315      9.021  0.006433078  19.3418         22
 5.29   0.0000    206.7520    549.3409 -45.49      1810.17     1.916     1.730      1.051  0.006429439  19.9057         23
 4.92   0.0000    212.4464   1306.3748 -86.34      1704.88     1.854     1.649      1.039  0.006433805  19.9708         24
 6.31   0.0000    230.1041    562.0859 -34.65     2786.258     3.211     2.625     10.142  0.006423614  19.4374         25
 7.04   0.0000    209.0439    349.7184   5.59     892.9561     2.056     1.260      2.076  0.006427984  20.6729         26
 3.50   0.0000    260.0271    997.7144 -32.96     86268.45     3.108     3.027      1.908  0.006430167  15.7104         27
 4.71   0.0000    224.0652   1226.2837 -20.72     2077.516     1.857     1.718      0.947  0.006426528  19.7561         28
 9.06   0.0000    210.5037    683.9939 -32.35     427.0092     0.790     0.316      2.250  0.006429439  21.4739         29
 8.20   0.0000    221.4668    346.4656  46.51     530.7322     1.425     1.262      3.959  0.006426528  21.2378         30
 3.50   0.0000    266.0551     67.7294 -46.53     65205.95     3.069     2.956      1.824  0.006427984  16.0143         31
 6.58   0.0000    223.0545    774.9872  32.06     667.9802     1.233     1.218      1.424  0.006433805  20.9881         32
 7.21   0.0000    243.5259    113.3848 -72.38      1114.29     2.132     1.609      9.372  0.006435259  20.4325         33
 5.38   0.0000    255.5203    613.4874 -34.80     2890.215     2.722     2.229      6.947  0.006425799  19.3977         34
 3.50   0.0000    312.5810    439.6433 -46.91     219673.9     3.341     3.242      2.231  0.006431622  14.6956         35
 8.45   0.0000    239.0145    838.5069  88.39     361.2383     0.800     0.500      1.961  0.006429439  21.6555         36
 3.55   0.0000    287.8746   1486.6700 -37.53     19669.14     2.729     2.624      1.533  0.006425799  17.3155         37
 3.54   0.0000    282.1709   1522.5713 -57.11     4815.267     2.237     2.131      1.058  0.006431622  18.8434         38
 3.67   0.0000    303.2971    201.9391 -62.46     15669.87     2.638     2.559      1.455  0.006426528  17.5623         39
 3.50   0.0000    318.9419    905.7490 -50.05     45803.75     2.960     2.898      1.820  0.006429439  16.3977         40
 5.86   0.0000    290.0642    515.4205 -43.74     1515.843     1.859     1.703      1.782  0.006433078  20.0984         41
 3.50   0.0000    351.6704    891.0421 -42.49     196478.4     3.363     3.241      2.123  0.006430167  14.8167         42
 5.18   0.0000    294.2253   1327.8463 -64.99     2018.056     1.811     1.691      1.245  0.006433805  19.7877         43
 3.50   0.0000    351.7484   1346.0500 -36.39     187421.1     3.313     3.171      2.149  0.006433805  14.8680         44
 8.32   0.0000    297.8438   1414.4490 -85.07      711.829     1.301     0.486      4.355   0.00643235  20.9191         45
 3.71   0.0000    322.2881    697.4871 -25.38     11341.91     2.435     2.390      1.294  0.006425799  17.9133         46
 6.51   0.0000    303.0039    563.4498  87.15     845.0604     1.162     0.981      1.511  0.006435259  20.7328         47
 6.06   0.0000    327.7697    595.6106 -71.53     1476.397     1.974     1.918      1.815  0.006433078  20.1270         48
 4.92   0.0000    346.6015    867.2303  18.69     6941.031     2.861     2.381      1.293  0.006428712  18.4464         49
 8.53   0.0000    323.2297    640.0140  -0.59     648.4781     0.698     0.421      3.596  0.006433805  21.0203         50
 4.76   0.0000    356.0260    432.0794  87.11     4986.562     2.496     2.332      1.493  0.006430895  18.8055         51
 4.17   0.0000    368.3613    761.2231 -35.81     11394.82     2.615     2.420      1.437   0.00643235  17.9082         52
 6.36   0.0000    350.1034     54.6538 -21.73     960.9202     1.382     1.164      1.160  0.006426528  20.5933         53
 4.87   0.0000    367.4929    442.9348 -35.45      4100.86     2.199     2.160      1.159  0.006428712  19.0178         54
 4.78   0.0000    361.4933   1500.6189 -39.83     1923.296     1.812     1.670      1.164  0.006430167  19.8399         55
 3.50   0.0000    395.3764    231.6054 -61.83     39785.47     2.946     2.880      1.789  0.006430895  16.5507         56
 7.80   0.0000    361.1692   1034.1797  42.65     455.5945     0.767     0.572      1.438  0.006430167  21.4036         57
 5.65   0.0001    381.0497      1.7524  88.80     64.41106     2.135     0.727      3.948  0.005008144  23.5276         58
 8.06   0.0000    372.7130    992.8636 -66.61     508.4962     0.965     0.672      1.312  0.006427256  21.2843         59
 4.12   0.0000    398.3277    354.7166   5.68     8992.524     2.419     2.381      1.260  0.006425799  18.1653         60
 3.64   0.0000    397.4610   1461.3257 -23.83     7937.295     2.404     2.266      1.225  0.006428712  18.3008         61
 3.50   0.0000    419.8367    433.5835 -58.69     37619.18     2.834     2.817      1.728  0.006433078  16.6115         62
 3.51   0.0000    415.8958    837.5114 -48.18     20949.71     2.714     2.631      1.550  0.006423614  17.2471         63
 3.84   0.0000    393.8893   1088.9030 -24.19     1861.399     1.829     1.746      1.190  0.006423614  19.8754         64
 5.52   0.0000    412.5150      2.1003  89.26     140.9967     3.144     1.055      5.972  0.005117211  22.6770         65
 8.72   0.0000    398.0094    626.0000  90.00     570.8102     0.853     0.289      3.422  0.006427984  21.1588         66
 3.50   0.0000    461.3327    807.6813 -41.80     98701.28     3.125     3.024      1.952  0.006426528  15.5642         67
 3.93   0.0000    424.4247    926.5838 -73.49     4166.979     2.218     2.075      1.161  0.006430167  19.0004         68
 3.54   0.0000    438.2094    252.3092 -22.94     17247.89     2.667     2.585      1.509  0.006428712  17.4582         69
 7.96   0.0000    421.4103    159.0942  66.35     693.5618     1.299     1.123      2.382  0.006428712  20.9473         70
 4.92   0.0000    433.2141   1422.2384  75.75     1218.947     1.587     1.455      0.882  0.006433078  20.3350         71
 4.58   0.0000    450.5570     21.3708 -80.62     5663.888     2.283     2.197      1.161  0.006433805  18.6672         72
 4.48   0.0000    457.9465     34.5625 -25.31     6392.409     2.433     2.277      1.170  0.006431622  18.5358         73
 5.57   0.0000    467.9408    850.8246  23.70     3581.106     6.481     2.304     14.996  0.006433805  19.1650         74
 9.10   0.0000    434.5980    150.8039  18.87     571.0479     0.771     0.446      1.357  0.006429439  21.1583         75
 6.79   0.0000    440.1227    306.1780 -32.48     614.4673     1.137     0.800      1.364  0.006431622  21.0788         76
 7.63   0.0000    445.2960    122.4233  33.99     671.1691     1.291     0.942      1.617  0.006429439  20.9829         77
 8.37   0.0000    447.9803    885.2001  17.76     675.3903     1.345     0.552      4.141  0.006430895  20.9761         78
 4.64   0.0000    463.8789    468.8594  55.78     1865.435     1.963     1.724      1.243  0.006428712  19.8730         79
 4.62   0.0000    472.3755    735.0891  25.44     2361.069     1.930     1.809      1.037  0.006429439  19.6172         80
 5.75   0.0000    471.6077    254.6995  85.35     1625.421     1.743     1.651      1.284  0.006427984  20.0226         81
 7.46   0.0000    461.1063   1097.1104  75.57     570.0929     0.975     0.702      1.573  0.006425071  21.1601         82
 3.93   0.0000    478.1623    923.1752 -38.12     3003.944     2.130     1.850      1.085   0.00643235  19.3558         83
 5.27   0.0000    478.3757   1277.2144 -76.28     1035.291     1.623     1.316      0.998  0.006430167  20.5123         84
 4.68   0.0000    484.0925   1070.7201 -63.60     1346.696     1.691     1.476      1.172  0.006427256  20.2268         85
 6.81   0.0000    495.7200     82.9163 -84.39     1761.753     2.354     1.996      7.760  0.006427256  19.9351         86
 5.93   0.0000    495.9522   1186.4457  -9.05     1773.204     2.797     1.785      6.591  0.006433805  19.9281         87
 4.76   0.0000    533.2038    519.0621  37.98        13598     4.396     3.915     12.969  0.006435259  17.7163         88
 3.71   0.0000    512.7703   1302.9841   1.53     13425.62     3.214     2.410      2.064  0.006433078  17.7302         89
 7.82   0.0000    504.2839    762.8732 -18.39     1007.035     1.322     1.098      3.028  0.006426528  20.5424         90
 6.13   0.0000    502.7135    863.6923  -7.41     675.6668     1.318     0.852      1.219  0.006425071  20.9757         91
 4.70   0.0000    515.7469   1461.2188  20.18     2343.822     3.707     1.729      8.127  0.006433078  19.6252         92
 7.98   0.0000    509.8079    166.5956  70.58      684.174     0.763     0.446      1.701  0.006430167  20.9621         93
 8.01   0.0000    509.5138    454.4899 -44.65     142.3817     0.503     0.496      1.958  0.006425799  22.6664         94
 8.05   0.0000    513.6719   1179.6215  13.08     754.2692     1.164     0.603      1.144  0.006434532  20.8562         95
 3.50   0.0000    588.1991   1315.9669 -38.53     196384.3     3.254     3.137      2.228  0.006430167  14.8172         96
 8.59   0.0000    518.5825    643.1854 -19.40     518.4792     0.773     0.446      2.431  0.006430895  21.2632         97
 3.93   0.0000    540.4721   1000.0886 -46.92     1916.595     1.999     1.628      1.029  0.006426528  19.8437         98
 4.56   0.0000    559.1486   1041.7238 -49.55     2540.277     1.905     1.756      1.080  0.006426528  19.5378         99
 3.87   0.0000    572.9556   1242.8220 -28.33     7965.219     2.382     2.281      1.425   0.00643235  18.2970        100
 3.50   0.0000    631.4180    483.3808 -44.31     317474.3     3.471     3.329      2.684  0.006430895  14.2957        101
 4.00   0.0000    580.9852    144.9868 -62.85     11265.77     2.482     2.376      1.443  0.006430895  17.9206        102
 5.98   0.0000    571.3608     45.9273  64.65     1560.574     2.063     1.660      3.430  0.006430167  20.0668        103
 3.88   0.0000    582.3660    319.3436 -29.95     11008.68     2.531     2.405      1.273   0.00643235  17.9457        104
 6.00   0.0000    571.9494   1447.6144  45.99     1357.801     1.879     1.528      4.226  0.006433078  20.2179        105
 4.89   0.0000    596.9901    782.7942  84.19     4281.207     3.294     3.137      8.483  0.006428712  18.9711        106
 7.19   0.0000    575.0060   1336.7366 -69.33     1145.861     1.694     1.614      1.260  0.006434532  20.4022        107
 6.96   0.0000    584.8660     75.8078  79.67     620.6831     1.095     0.859      1.265  0.006435259  21.0678        108
 4.47   0.0000   1001.7277   1555.5181 -34.07     1274.667     1.504     1.278      1.190  0.006425799  20.2865        109
 8.60   0.0000   1598.7208    655.0220  -1.97     373.1143     0.741     0.679      4.445  0.005184438  21.6204        110
 5.55   0.0000   1565.9288    784.8401  77.23      1684.63     1.810     1.476      1.895  0.006430895  19.9837        111
 3.50   0.0000   1558.1409    487.7713 -79.67     46122.95     2.884     2.853      1.796  0.006433078  16.3902        112
 5.16   0.0000    886.1887   1500.2479 -31.93     919.2496     1.475     1.194      1.157  0.006433078  20.6414        113
 6.66   0.0000    877.9839   1177.5114 -16.81     955.5259     1.390     1.207      2.544  0.006430167  20.5994        114
 3.50   0.0000    859.6315   1224.5569 -40.22     182597.1     3.278     3.133      2.073  0.006433805  14.8963        115
 6.45   0.0000    868.6469    939.6868  10.70     996.6163     1.646     0.960      3.463  0.006428712  20.5537        116
 6.52   0.0000    860.1113   1157.0590  81.66     930.1099     1.303     0.900      1.496  0.006427256  20.6287        117
 8.81   0.0000    859.0093   1339.4808 -89.34     713.4197     0.801     0.500      1.450  0.006430167  20.9166        118
 4.62   0.0000    869.8472   1103.8760 -38.57     2413.838     2.090     1.909      1.624  0.006427984  19.5932        119
 6.04   0.0000    843.8174   1106.2993  23.41     1080.617     1.522     1.174      1.475  0.006428712  20.4658        120
 7.61   0.0000    845.0912   1064.6450  19.49     571.8421     0.955     0.682      1.140  0.006426528  21.1568        121
 5.90   0.0000    838.1814   1246.9702 -20.17     1543.273     1.978     1.742      1.844  0.006431622  20.0789        122
 5.51   0.0000    836.7602    298.9550 -65.05     1567.057     1.834     1.556      1.143  0.006431622  20.0623        123
 3.69   0.0000    823.2612    654.5356 -35.60     7022.406     2.359     2.282      1.215  0.006427984  18.4338        124
 3.67   0.0000    803.4128   1378.7422 -54.00     6708.539     2.300     2.183      1.227  0.006433078  18.4834        125
 3.50   0.0000    798.7738    695.8101 -84.75     18373.53     3.076     2.543      4.144  0.006430895  17.3895        126
 5.04   0.0000    800.9283     41.3083 -29.45     3114.376     2.080     1.919      1.139  0.006427256  19.3166        127
 5.20   0.0000    774.6801   1427.5056 -73.06       2157.5     2.432     2.040      6.131  0.006426528  19.7151        128
 6.16   0.0000    766.9759    392.1918  19.80     1359.998     1.712     1.448      1.146  0.006430895  20.2162        129
 4.96   0.0000    742.9076    556.5101 -23.97      1629.33     1.705     1.658      1.059  0.006425071  20.0200        130
 3.50   0.0000    724.3961    405.0894 -41.01     218486.7     3.434     3.279      2.337  0.006428712  14.7014        131
 7.44   0.0000    738.0159   1157.9910 -44.70     571.2266     0.909     0.532      1.267  0.006427984  21.1580        132
 6.06   0.0000    736.1520    649.9449 -39.82     632.6038     1.234     0.944      1.151  0.006430895  21.0472        133
 3.50   0.0000    726.8686    848.5687 -57.32     50990.52     2.984     2.915      1.786  0.006431622  16.2813        134
 5.12   0.0000    727.7788   1178.4082 -13.06     1110.177     1.537     1.448      1.236  0.006430167  20.4365        135
 4.33   0.0000    716.0901    808.4656 -15.44     1416.473     1.606     1.513      1.009  0.006428712  20.1720        136
 4.84   0.0000    709.1076   1164.1731 -23.00     1455.907     1.652     1.382      1.214  0.006428712  20.1422        137
 5.30   0.0000    704.4922   1339.0616 -15.57     1399.262     1.766     1.733      1.870  0.006428712  20.1853        138
 3.59   0.0000    703.0034    952.5806  46.55     2590.451     1.868     1.843      1.165  0.006430167  19.5166        139
 8.49   0.0000    691.0121   1214.2306  71.87     921.5876     1.013     0.760      5.007  0.006433078  20.6387        140
 4.37   0.0000    685.7341    644.3630  89.09       2104.7     2.081     1.796      1.119  0.006431622  19.7420        141
 7.36   0.0000    683.1537    472.2704 -85.37     1509.956     2.308     2.158      7.383  0.006429439  20.1026        142
 6.11   0.0000    681.5815    543.7034 -69.59     1483.625     2.273     1.857      4.355  0.006429439  20.1217        143
 3.50   0.0000    648.6836   1464.4570 -40.95     50111.19     2.942     2.859      1.890  0.006427984  16.3002        144
 7.64   0.0000    654.4812    871.4532   0.21     643.3971     1.120     0.500      1.156  0.006426528  21.0288        145
 4.29   0.0000   1542.6431    654.8121 -45.38      3142.01     2.035     1.962      1.142  0.006431622  19.3070        146
 3.84   0.0000    639.9423    536.9742 -83.24     11707.12     2.556     2.431      1.395  0.006433078  17.8789        147
 6.89   0.0000    630.9633    806.3074   1.12     683.3278     1.247     0.766      1.117  0.006427256  20.9634        148
 4.40   0.0000    623.5655   1581.1472 -50.13     1154.516     1.500     1.436      1.311  0.006433078  20.3940        149
 4.98   0.0000    605.5164    586.4456  53.86      1198.37     1.543     1.389      1.122  0.006428712  20.3535        150
 3.50   0.0000   1563.8098    304.2241 -45.62     47509.36     2.923     2.836      1.796  0.006430895  16.3581        151
 6.05   0.0000    896.0804    538.6010  44.70      1389.24     1.940     1.683      3.906   0.00643235  20.1931        152
 6.31   0.0000   1561.8214    861.9495 -23.36     1645.072     1.254     1.102      1.505   0.00643235  20.0095        153
