#   1 KRON_RADIUS            Kron apertures in units of A or B                         
#   2 MAGERR_APER            RMS error vector for fixed aperture mag.                   [mag]
#   3 Y_IMAGE                Object position along y                                    [pixel]
#   4 X_IMAGE                Object position along x                                    [pixel]
#   5 THETA_IMAGE            Position angle (CCW/x)                                     [deg]
#   6 FLUX_APER              Flux vector within fixed circular aperture(s)              [count]
#   7 A_IMAGE                Profile RMS along major axis                               [pixel]
#   8 B_IMAGE                Profile RMS along minor axis                               [pixel]
#   9 FLUX_RADIUS            Fraction-of-light radii                                    [pixel]
#  10 FLUXERR_APER           RMS error vector for aperture flux(es)                     [count]
#  11 MAG_APER               Fixed aperture magnitude vector                            [mag]
#  12 NUMBER                 Running object number                                     
 3.50   0.0002    182.7405   1107.2815 -34.01     508853.9     5.694     4.919      6.587     77.58652  13.7835          1
 3.89   0.0028     54.0678     63.6179  -6.92      29790.4     4.656     4.450      8.510     77.65679  16.8648          2
 3.68   0.0168     17.3637    984.8643 -88.08      5008.16     3.945     1.796      5.939     77.63045  18.8008          3
 3.50   0.0213     18.7794     91.0175 -64.26     3960.033     1.540     1.445      2.700     77.63045  19.0558          4
 3.50   0.0083     15.4458   1445.5846 -51.60     10191.27     1.656     1.523      2.646     77.63923  18.0294          5
 5.58   0.4568     10.2966   1183.4696  -2.39     184.5102     0.786     0.714      1.822     77.60409  22.3849          6
 5.93   0.9460      7.9055   1469.7234 -62.96     89.06075     0.891     0.213      1.490     77.57773  23.1758          7
 6.09   1.0175      5.0201     54.9799 -45.00      76.7823     1.229     0.289      4.331     71.94092  23.3368          8
 6.28   0.2087      4.2469    145.0632 -10.48     362.0067     1.031     0.624      2.793     69.57997  21.6532          9
 5.18   0.2302     18.1515    384.1561  42.53     366.2998     0.978     0.838      2.145     77.64801  21.6404         10
 4.30   0.0031    235.8859    403.0980 -62.15     27355.91     5.675     4.962     11.563     77.54256  16.9574         11
 7.30   0.2222     24.4480    383.4140 -78.67     379.6284     1.489     0.404      4.595     77.65679  21.6016         12
 3.50   0.0018     60.5787   1078.2400  78.50     48042.29     1.980     1.820      2.795     77.64801  16.3459         13
 3.63   0.0999     25.4014    367.1157 -13.67     843.9301     1.355     1.112      2.571     77.63045  20.7342         14
 7.62   1.1321     27.9211   1357.2938  87.31     74.41824     0.837     0.454      4.490     77.57773  23.3708         15
 4.76   0.5311     31.3545   1108.9049  75.04     158.5937     0.854     0.706      2.067     77.56014  22.5493         16
 7.29   0.1684     34.4380    326.1239 -84.93      500.468     1.042     0.952      4.359     77.61288  21.3016         17
 6.89   0.2377     35.2352   1110.4044 -83.18     354.7774     1.143     0.792      3.635     77.63923  21.6751         18
 5.47   0.2804     39.7402   1170.7202 -35.51     300.5716     1.312     0.617      2.955     77.60409  21.8551         19
 3.50   0.9203     38.8173   1521.2510  34.17     91.62947     1.138     0.596      1.705     77.64801  23.1449         20
 3.50   0.4211     36.6734    334.0000 -28.22     200.3238     0.910     0.211      1.457     77.68313  22.2957         21
 3.50   1.7999     42.5088   1233.0178 -63.10     46.83437     1.201     0.496      1.844     77.62167  23.8736         22
 5.60   3.7944     40.1198   1225.9401 -56.84     22.21096     1.032     0.386      1.950     77.60409  24.6836         23
 4.62   0.3539     43.1543    915.5667 -39.00     238.3081     1.055     0.712      2.209     77.66557  22.1072         24
 3.50   0.0018     80.9682    537.4006 -63.19     45767.85     1.863     1.768      2.723     77.62167  16.3986         25
 7.60   0.3832     44.8834    441.2556  63.30     219.8514     0.870     0.216      1.896     77.57773  22.1947         26
 8.16   0.1267     43.3650     46.9430 -28.77     665.7822     0.927     0.207      2.538     77.64801  20.9917         27
 3.50   0.7004     47.1420    473.7140  63.43     120.2932     0.926     0.202      1.288     77.58652  22.8494         28
 7.42   0.1005     47.3209     47.5859  42.35     839.1291     0.603     0.311      2.239     77.65679  20.7404         29
 6.53   0.2182     47.3486     29.0000  -0.00     386.6685     0.807     0.477      2.553     77.68313  21.5817         30
 6.90   0.3529     48.2545    440.0000   0.00     239.0597     0.713     0.436      2.180     77.68313  22.1037         31
 6.11   0.7783     51.0360   1435.1759 -34.24     108.3206     0.783     0.497      2.309     77.63045  22.9632         32
 7.35   0.5733     52.3333    266.6667  45.00     146.9633     0.577     0.333      2.420     77.57773  22.6320         33
 5.25   3.1005     56.3026   1263.6053  41.67     27.18519     0.588     0.324      1.662     77.61288  24.4642         34
 3.92   0.0529     75.8943    127.6812 -33.15      1593.13     1.254     1.163      2.296     77.57773  20.0444         35
 5.26   1.6350     72.8095    953.8096  45.00     51.54052     1.181     0.289      2.179     77.59531  23.7696         36
 4.18   0.1012     92.0422    377.0393 -77.55     833.5668     1.894     1.601      3.781     77.66557  20.7476         37
 5.50   0.2630     82.9585    421.5509 -54.03     320.6571     1.270     0.623      2.670     77.65679  21.7849         38
 3.50   0.0012    122.5924    788.9217 -59.46     67925.03     1.960     1.816      2.746     77.64801  15.9699         39
 5.81   4.3104     83.6667    179.0218  27.82     19.56331     0.932     0.206      1.741     77.64801  24.8214         40
 3.64   0.0364     97.3301     56.0065 -20.83      2318.33     1.350     1.269      2.452     77.66557  19.6371         41
 8.43   0.4405     92.0239   1075.6587 -61.52     191.4796     0.916     0.210      4.212     77.66557  22.3447         42
 8.46   0.4599     92.1013    495.2714 -63.06      183.178     0.886     0.214      2.123     77.57773  22.3928         43
 8.59   0.7701     94.3855     89.6816  47.31     109.5032     0.592     0.322      2.773     77.64801  22.9514         44
 6.58   0.1495     99.1556    452.2036 -33.18     564.2234     1.374     0.783      5.083     77.67435  21.1714         45
 6.57   0.6180     96.5928   1075.6500  22.40     136.4818     1.188     0.206      1.641     77.66557  22.7123         46
 3.50   0.0003    194.4159    317.8738 -63.56     291316.7     2.296     2.048      2.753     77.68313  14.3891         47
 3.50   1.4785    107.9521    185.3652 -61.41     57.03484     0.933     0.206      1.305     77.64801  23.6596         48
 7.24   0.3394    114.0205    270.3128 -89.22     248.4197     0.829     0.464      2.299     77.63045  22.0620         49
 7.18   0.3130    118.0000     66.5487  57.15      269.516     0.773     0.319      2.368     77.68313  21.9735         50
 3.50   0.0022    163.1416   1468.1309 -54.85     38438.36     1.856     1.772      2.706     77.60409  16.5881         51
 6.41   0.3980    132.4888    418.1703 -25.83     211.7336     1.473     0.469      2.439     77.60409  22.2355         52
 3.50   3.1404    131.3822     62.3194 -47.20     26.85464     0.591     0.323      0.872     77.65679  24.4775         53
 3.50   2.0377    141.0000    178.9660   0.00     41.36432     0.878     0.289      1.042     77.61288  24.0084         54
 3.50   0.0097    171.1748    877.1529  75.67     8719.456     1.557     1.509      2.622     77.66557  18.1988         55
 7.25   0.4650    152.3333   1279.3923 -43.23     181.4178     0.601     0.315      2.218     77.67435  22.4033         56
 7.27   0.1109    160.4779   1148.2367  15.26     759.8992     1.493     0.914      7.123     77.61288  20.8481         57
 3.90   0.1285    165.8038   1445.6472   5.07     656.5001     1.275     0.973      2.349     77.67435  21.0069         58
 5.62   0.0559    172.4979    324.9993  86.12      1507.96     1.358     1.232      3.630     77.59531  20.1040         59
 3.50  99.0000    163.1070    126.3048 -63.08    -64.35026     0.936     0.201      1.117     77.55135  99.0000         60
 6.78   0.6696    163.9584    629.0416 -45.00     125.9263     1.223     0.289      1.615     77.64801  22.7997         61
 3.91   0.1547    167.4874    104.0908 -30.28     544.4943     1.111     0.868      2.203     77.56014  21.2100         62
 3.50   0.7518    166.0419    274.0000  90.00     112.1604     0.849     0.289      1.173     77.64801  22.9254         63
 3.86   0.4234    170.9909   1368.0988 -45.99     199.0244     1.303     0.607      2.167     77.59531  22.3027         64
 6.93   0.5261    169.0000    651.7692  90.00     160.2006     0.679     0.421      2.260     77.61288  22.5383         65
 5.11   0.2812    181.0742    574.6080  50.74     299.9236     1.296     0.874      3.226     77.65679  21.8575         66
 7.63   0.1786    187.0528   1354.2338  56.77     472.2689     1.421     0.779      4.263     77.65679  21.3645         67
 4.35   0.0900    193.5174   1350.4446 -41.44     936.2076     1.305     0.928      2.411     77.60409  20.6216         68
 4.08   0.0228    211.6083    827.3955  -9.36     3698.876     3.731     1.899      6.409     77.62167  19.1298         69
 3.60   0.0490    207.4825    548.8375 -64.15     1721.699     1.396     1.179      2.596     77.62167  19.9601         70
 6.41   0.2659    196.2269    267.9209   3.76     317.0451     0.670     0.417      2.325     77.63045  21.7972         71
 4.39   0.0264    231.0004    562.1113 -29.07     3195.196     3.228     2.772      6.955     77.61288  19.2888         72
 5.63   0.0745    209.3964    349.7953  42.44     1131.821     1.540     1.144      4.310     77.60409  20.4156         73
 7.54   0.2892    196.6142   1159.6317 -45.43     291.5995     0.614     0.304      3.159     77.64801  21.8880         74
 7.66   0.1278    205.2521    301.1124  75.49     659.0713     1.533     0.512      5.649     77.57773  21.0027         75
 3.50   0.1700    211.3650    684.4688  86.20     495.9637     1.579     1.065      3.161     77.63923  21.3114         76
 3.50   0.0525    213.0156   1305.8958  64.26     1606.316     1.267     1.116      2.384     77.62167  20.0354         77
 5.43   0.3204    204.3531    250.7012  59.54     262.7469     0.717     0.627      1.972     77.52497  22.0012         78
 6.65   0.3730    205.8955    937.1046 -45.00     225.6925     1.210     0.289      2.067     77.52497  22.1662         79
 5.65   0.0311    229.7400    414.9763 -37.42     2710.698     1.751     1.628      6.835     77.65679  19.4673         80
 6.99   0.1644    207.3063    415.3468 -43.11     512.6976     0.571     0.336      2.069     77.59531  21.2753         81
 3.85   0.0381    224.5091   1225.8743 -77.75     2212.215     1.418     1.212      2.618     77.58652  19.6879         82
 6.29   0.0903    223.5637    345.8375 -52.05     934.6218     1.667     1.442      5.879     77.68313  20.6234         83
 6.63   0.2921    219.0222    740.5000 -56.89     288.3585     1.457     0.611      3.342     77.56894  21.9002         84
 3.50  99.0000    211.5958    608.7021 -48.74    -58.54562     0.589     0.322      0.921     77.61288  99.0000         85
 8.31   0.0925    217.0000    414.5498 -90.00     912.2034     0.741     0.498      4.324     77.68313  20.6498         86
 3.50   0.0008    260.5682    997.2298 -57.01     103019.6     1.971     1.854      2.738     77.65679  15.5177         87
 3.96   0.1456    223.1898    774.7103 -28.21     578.8731     1.147     0.906      2.146     77.62167  21.1435         88
 8.02   0.1386    219.0000   1126.6863 -61.65     608.3096     0.893     0.215      2.711     77.61288  21.0897         89
 3.50   0.0010    266.6972     67.3779 -75.77     86985.79     1.966     1.875      2.700     77.59531  15.7014         90
 4.10   0.0610    244.3301    112.7150  74.17     1381.449     2.024     1.468      3.866     77.57773  20.1992         91
 3.67  16.5540    224.4765     84.0626 -32.38     5.089958     0.789     0.315      1.127     77.58652  26.2832         92
 4.34   0.4068    232.0000     20.0353   0.00     207.1454     0.831     0.289      1.352     77.59531  22.2593         93
 4.59   0.0243    256.4008    612.6790 -30.02     3475.849     2.267     1.671      4.656     77.64801  19.1973         94
 5.94   0.1673    239.8350    838.3710 -20.31     503.9713     1.451     0.794      3.345     77.63045  21.2940         95
 6.27   0.1348    250.8141    107.8769 -74.34     625.9659     1.569     1.055      4.900     77.68313  21.0586         96
 6.44   2.2931    240.3460   1478.8618 -47.85     36.75242     1.076     0.282      1.826     77.60409  24.1368         97
 3.50   0.0002    313.2050    439.2146 -58.88     356279.6     2.225     2.052      2.715     77.60409  14.1705         98
 7.47   0.1716    253.0191   1372.5363  88.52      491.506     0.935     0.498      3.527     77.64801  21.3212         99
 4.78   0.8113    254.2934   1352.3800  21.43     103.8856     0.819     0.369      1.634     77.61288  23.0086        100
 3.50   0.0041    288.3638   1486.2595 -50.06     20319.19     1.730     1.592      2.660     77.63923  17.2802        101
 5.48   0.2500    261.3333     84.2922 -47.26     337.0697     0.559     0.342      1.075     77.59531  21.7307        102
 5.94   0.1952    270.6706   1273.9196 -40.56     431.6293     1.404     1.014      4.010     77.58652  21.4622        103
 3.50   0.0198    282.7119   1522.1971 -53.12      4266.97     1.396     1.295      2.414     77.61288  18.9747        104
 3.98   0.0473    290.4916    514.7990 -75.95     1780.333     1.798     1.477      3.520     77.60409  19.9237        105
 3.50   0.0056    303.9724    201.5991 -71.10     15055.42     1.677     1.559      2.595     77.61288  17.6058        106
 3.50   0.0014    319.4947    905.2546 -62.41     59745.98     1.905     1.795      2.713     77.57773  16.1092        107
 3.91   0.0454    294.7829   1327.3722  22.05     1856.984     1.246     1.243      2.414     77.63923  19.8780        108
 3.83   0.0877    298.4533   1413.6970 -37.05     961.0414     2.489     1.309      4.525     77.56894  20.5931        109
 3.50   0.0003    352.2306    890.5782 -55.05     314858.9     2.185     2.027      2.760     77.63045  14.3047        110
 5.46   0.1628    294.2862   1475.5724 -56.07     517.8281     1.236     0.945      3.142     77.62167  21.2645        111
 3.50   0.4757    285.7057    430.6276 -41.61     177.1476     0.575     0.332      1.051     77.59531  22.4292        112
 3.50   0.0003    352.2426   1345.7185 -50.78     303673.9     2.162     2.010      2.747     77.61288  14.3440        113
 3.80   0.1347    302.6447    563.4781  78.23     625.7848     1.226     1.003      2.802     77.60409  21.0589        114
 3.50   0.0085    322.8607    697.1566 -65.12     9866.021     1.562     1.502      2.569     77.63045  18.0646        115
 7.29   0.1742    308.2585     85.3362  -9.80     483.8702     1.278     0.681      4.028     77.59531  21.3382        116
 3.50   0.1067    322.0946    641.3365 -62.74     789.5818     2.440     1.055      3.811     77.60409  20.8065        117
 4.71   0.0488    328.1742    595.2105  73.58     1726.452     1.458     1.438      3.560     77.62167  19.9571        118
 5.18   0.1599    310.7306    421.6347 -39.96     527.4022     0.561     0.338      1.530     77.63923  21.2446        119
 3.50   0.6504    314.0000    326.0000  90.00     129.6605     0.857     0.289      1.225     77.64801  22.7680        120
 3.50   6.4415    331.2698    183.0000   0.00     13.09393     0.855     0.444      1.183     77.66557  25.2573        121
 7.84   0.9747    318.3266    226.3266 -45.00     86.43848     0.571     0.337      2.440     77.57773  23.2082        122
 3.81   0.0154    356.5799    431.6029 -76.34     5463.083     1.846     1.569      3.085     77.62167  18.7064        123
 6.20   0.8031    323.0000    968.9377   0.00     105.0436     0.852     0.289      2.231     77.68313  22.9966        124
 3.80   0.0125    347.1124    866.9248 -32.94     6738.943     1.695     1.476      2.706     77.56894  18.4785        125
 5.47   0.3121    335.7198   1440.2043  84.72     270.1709     1.131     0.665      2.120     77.63923  21.9709        126
 4.72   0.1995    332.9469     93.2883 -11.73     422.3743     1.125     0.860      2.462     77.58652  21.4858        127
 4.12   0.5877    330.2740   1545.6711 -32.71     143.3107     0.997     0.657      1.867     77.56014  22.6593        128
 7.04   0.6400    339.9679    803.0641 -46.74     131.7445     0.904     0.491      1.500     77.63923  22.7507        129
 3.52  99.0000    339.3253   1453.3494 -44.01    -30.61247     0.581     0.331      1.064     77.57773  99.0000        130
 3.50   0.9921    340.3113    179.6887  45.00     84.88513     0.558     0.343      1.012     77.54256  23.2279        131
 3.94   0.0987    350.8347     54.4691  76.81     854.3342     1.181     1.089      2.259     77.63923  20.7209        132
 3.51   0.0083    368.9974    760.8605 -60.60     10222.83     1.551     1.481      2.526     77.68313  18.0261        133
 7.14   0.2304    351.0782    920.1328 -13.25     365.6307     0.988     0.607      3.568     77.56894  21.6424        134
 6.94   0.5459    348.7854     42.1722 -15.90     154.4617     0.890     0.343      1.986     77.64801  22.5779        135
 3.57   0.2783    359.9514    532.6904  36.10     302.7499     1.656     1.032      2.788     77.57773  21.8473        136
 3.50   0.0515    362.0010   1500.1412   8.09     1636.689     1.306     1.171      2.444     77.68313  20.0151        137
 3.71   0.0222    368.2740    442.6691 -49.15     3786.615     1.494     1.273      2.523     77.56894  19.1044        138
 3.50   0.5562    353.2529    349.8478 -18.72     151.5717     1.225     0.679      1.844     77.63045  22.5985        139
 3.50   0.0017    396.0186    231.2769 -59.08     50373.14     1.810     1.767      2.638     77.67435  16.2945        140
 3.56   0.3050    361.2871   1033.8175 -47.32     276.4212     0.935     0.779      1.849     77.62167  21.9461        141
 3.50  99.0000    360.0421    151.0000  90.00    -100.0516     0.873     0.289      1.591     77.64801  99.0000        142
 6.36   0.3795    369.5382    210.7691  82.98     222.1375     1.090     0.403      2.018     77.63045  22.1834        143
 4.57   0.2530    374.3807   1083.7490 -45.04     333.3224     1.277     0.931      2.428     77.64801  21.7428        144
 4.09   0.1752    373.8611    992.1259  74.32      481.168     1.049     0.879      2.283     77.60409  21.3443        145
 7.43   0.1977    371.0736     71.6402  18.67     426.4511     0.950     0.681      3.916     77.62167  21.4753        146
 6.78   0.1364    377.0766    754.1260  38.20      617.772     1.702     0.883      4.893     77.58652  21.0729        147
 3.50   0.0125    397.8547   1460.9972 -66.73     6760.206     1.530     1.480      2.550     77.69191  18.4751        148
 7.65   0.1562    372.6172    752.9365  28.61     539.8135     0.945     0.202      2.137     77.64801  21.2194        149
 3.50   0.0103    399.0069    354.3418 -79.11     8195.576     1.578     1.455      2.543     77.68313  18.2661        150
 6.92   0.2742    376.7931     86.0456  27.46      307.576     1.524     0.222      2.080     77.66557  21.8301        151
 3.50   0.0534    394.4658   1088.6558 -38.77     1577.416     1.346     1.287      2.506     77.60409  20.0551        152
 3.50   0.0018    420.3878    433.1454 -56.35     46231.12     1.876     1.736      2.658     77.66557  16.3877        153
