#   1 KRON_RADIUS            Kron apertures in units of A or B                         
#   2 MAGERR_APER            RMS error vector for fixed aperture mag.                   [mag]
#   3 Y_IMAGE                Object position along y                                    [pixel]
#   4 X_IMAGE                Object position along x                                    [pixel]
#   5 THETA_IMAGE            Position angle (CCW/x)                                     [deg]
#   6 FLUX_APER              Flux vector within fixed circular aperture(s)              [count]
#   7 A_IMAGE                Profile RMS along major axis                               [pixel]
#   8 B_IMAGE                Profile RMS along minor axis                               [pixel]
#   9 FLUX_RADIUS            Fraction-of-light radii                                    [pixel]
#  10 FLUXERR_APER           RMS error vector for aperture flux(es)                     [count]
#  11 MAG_APER               Fixed aperture magnitude vector                            [mag]
#  12 NUMBER                 Running object number                                     
 4.76   0.0006     53.0736     63.6999   5.51     148788.3     3.988     3.644     13.211     83.69842  15.1186          1
 4.66   0.0037     16.6918    984.9968 -88.02     24419.59     2.956     1.596      8.450     83.74586  17.0807          2
 4.55   0.0045     17.7495     91.2424 -79.59     20350.49     1.576     1.521      4.470     83.79326  17.2786          3
 3.71   0.0017     14.6941   1445.5286 -33.38     52877.46     1.861     1.820      4.153     83.73637  16.2418          4
 6.47   0.0207     24.7442    367.1736  67.11     4407.155     1.088     0.513      3.663     83.80274  18.9396          5
 3.50   0.0004     59.7851   1078.2341  63.34     239727.7     2.315     2.253      4.413     83.79326  14.6007          6
 3.50   0.0004     80.1138    537.5025  22.52     230244.5     2.275     2.216      4.585     83.68893  14.6445          7
 3.50   0.0000    182.1499   1107.1932 -21.30      2437530     4.588     4.274      9.249     83.82169  12.0826          8
 5.82   0.0107     74.8997    127.8917  41.44     8510.144     1.288     1.149      4.317     83.67944  18.2252          9
 3.50   0.0003    121.7268    788.9882 -20.11     342825.1     2.363     2.344      4.463     83.83117  14.2123         10
 5.06   0.0071     96.3947     55.8320 -19.57     12736.16     1.350     1.259      4.300     83.80274  17.7874         11
 3.50   0.0001    193.4290    317.9678 -41.29      1465857     2.705     2.621      4.665     83.80274  12.6348         12
 3.50   0.0005    162.3457   1468.0752 -45.67     194737.6     2.232     2.175      4.323     83.74586  14.8264         13
 3.57   0.0021    170.2823    877.1946 -21.20     43592.41     1.992     1.867      4.383     83.78378  16.4515         14
 6.54   0.0119    170.8250    325.2957 -40.33     7621.593     0.965     0.838      4.835     83.75534  18.3449         15
 5.02   0.0007    234.6016    403.6657 -33.42     136213.8     5.167     4.116     17.454     83.83117  15.2144         16
 6.84   0.0155    192.4389   1350.2408 -25.96     5854.624     0.910     0.766      4.443     83.81222  18.6313         17
 6.98   0.0048    210.5078    826.8778  -8.98     18853.31     2.130     1.475      9.874     83.72688  17.3615         18
 5.91   0.0100    206.2398    548.8522 -12.23     9108.492     1.229     1.170      4.093     83.79326  18.1514         19
 5.27   0.0099    212.1731   1305.9985  33.21     9210.859     1.288     1.084      4.050      83.7743  18.1392         20
 8.84   0.0148    209.5003    348.5010  45.08     6135.086     0.500     0.500      3.001     83.67944  18.5804         21
 4.19   0.0087    223.6748   1225.5409  21.43     10487.17     1.361     1.283      3.571     83.75534  17.9984         22
 3.50   0.0002    259.5799    997.2325 -12.04     594944.2     2.518     2.449      4.448     83.79326  13.6138         23
 7.91   0.0055    229.2366    561.4113  -5.39     16506.26     1.962     1.282      9.716     83.80274  17.5059         24
 7.59   0.0255    222.3091    774.6770  44.27     3571.372     0.562     0.341      2.977     83.72688  19.1679         25
 3.50   0.0002    265.5647     67.4432  10.39     438854.8     2.437     2.395      4.533     83.82169  13.9442         26
 7.60   0.0131    243.6204    112.7716  16.62     6958.809     0.964     0.645      4.952     83.79326  18.4437         27
 5.19   0.0051    255.0401    612.7058 -17.92     17695.84     2.021     1.620      6.959     83.69842  17.4303         28
 3.50   0.0001    312.1774    439.1657 -13.83      1729462     2.766     2.661      4.691     83.79326  12.4552         29
 3.63   0.0009    287.4764   1486.1249 -43.80     104180.1     2.048     2.043      4.178     83.73637  15.5055         30
 4.46   0.0039    281.9365   1522.0271  12.37     23262.85     1.606     1.534      4.153     83.79326  17.1333         31
 3.50   0.0003    318.4750    905.3110 -23.49     299990.9     2.384     2.325      4.464     83.70791  14.3572         32
 3.72   0.0012    302.8204    201.5913 -11.79     75879.91     2.036     1.963      4.406     83.75534  15.8497         33
 6.43   0.0102    289.4337    514.9032  21.77     8920.063     1.280     1.109      5.134      83.7174  18.1741         34
 4.69   0.0091    293.8911   1327.2559  -8.13     10016.88     1.331     1.133      3.866     83.73637  18.0482         35
 3.50   0.0001    351.2150    890.6105 -20.64      1578293     2.679     2.619      4.548     83.76482  12.5545         36
 3.50   0.0001    351.3136   1345.6615 -16.35      1497964     2.678     2.609      4.523     83.73637  12.6112         37
 3.50   0.0018    321.7043    697.1205  -1.34     50499.36     1.980     1.792      4.151     83.70791  16.2918         38
 6.73   0.0094    327.1209    595.3190  77.27     9638.239     1.190     1.017      5.622     83.73637  18.0900         39
 4.94   0.0026    346.1332    866.8626  -2.58     34727.26     1.804     1.786      5.439     83.74586  16.6983         40
 4.66   0.0032    355.4992    431.5913 -85.48     28073.16     1.980     1.746      5.326     83.74586  16.9293         41
 3.92   0.0017    367.8107    760.9424 -23.24     52047.63     1.949     1.894      4.262     83.82169  16.2590         42
 7.95   0.0186    349.6844     54.8306 -29.57     4883.189     0.861     0.613      4.232     83.78378  18.8282         43
 4.89   0.0096    360.8478   1500.0731  49.68     9516.793     1.286     1.166      3.973     83.74586  18.1038         44
 3.99   0.0046    367.0157    442.6554  -4.74     19963.34     1.629     1.481      4.131     83.81222  17.2994         45
 3.50   0.0004    394.8368    231.2965  41.81     255021.2     2.343     2.277      4.500     83.70791  14.5336         46
 3.90   0.0025    396.8571   1460.8850  14.04     36603.19     1.841     1.731      4.066     83.72688  16.6412         47
 3.60   0.0022    397.8311    354.3651  44.80     41444.16     1.883     1.750      4.170     83.79326  16.5063         48
 3.50   0.0004    419.2020    433.1641  22.31     233121.4     2.328     2.295      4.444      83.7743  14.6310         49
 5.36   0.0104    393.6920   1088.5493  89.56     8729.062     1.201     1.013      3.943     83.74586  18.1976         50
 3.50   0.0008    415.3564    837.2811   8.63       112508     2.140     2.089      4.321     83.74586  15.4220         51
 4.35   0.0045    424.0066    926.2327 -43.07     20174.45     1.595     1.518      4.243     83.79326  17.2880         52
 3.57   0.0011    437.5113    251.9212  10.66     83084.54     2.048     2.002      4.350     83.72688  15.7512         53
 3.50   0.0001    460.6612    807.4064  -9.60     722269.2     2.537     2.441      4.382     83.84064  13.4033         54
 7.43   0.0196    420.7388    160.2448 -19.02     4648.648     0.875     0.354      3.695     83.78378  18.8817         55
 5.16   0.0135    432.4912   1422.0449  46.46     6742.514     1.374     1.035      3.969     83.72688  18.4779         56
 4.26   0.0034    449.7295     21.2905 -30.46     26432.22     1.732     1.698      4.506     83.72688  16.9947         57
 7.75   0.0327    440.0000    306.0034   0.00     2781.807     0.851     0.289      3.345     83.78378  19.4392         58
 4.30   0.0031    457.3224     34.5136  41.77     29644.88     1.728     1.708      4.483     83.70791  16.8701         59
 6.50   0.0211    444.0941    122.7514 -35.96     4314.551     1.097     0.521      4.142      83.7174  18.9627         60
 6.49   0.0041    467.3463    850.1621  24.15     22082.65     4.170     1.534     16.307     83.78378  17.1899         61
 6.06   0.0097    463.3726    468.1671  79.66     9429.865     1.361     1.210      4.541     83.79326  18.1137         62
 5.00   0.0077    471.6059    735.0529 -58.33     11817.04     1.408     1.302      4.339     83.85959  17.8687         63
 5.16   0.0109    470.9095    254.1994  49.02     8363.784     1.312     1.019      4.373     83.75534  18.2440         64
 5.12   0.0060    477.5139    922.9161  -6.91     15133.32     1.588     1.406      4.200     83.72688  17.6002         65
 6.22   0.0155    477.5089   1276.5143 -73.41     5878.352     1.022     0.733      3.694     83.70791  18.6269         66
 6.30   0.0142    483.7006   1070.2640  14.36      6410.38     1.125     0.992      3.808     83.74586  18.5328         67
 7.68   0.0081    495.1989     82.1739  72.36     11178.48     1.283     0.950      6.682      83.7743  17.9290         68
 8.53   0.0100    494.4341   1189.1519  78.86     9087.432     0.889     0.613      5.333     83.80274  18.1539         69
 3.77   0.0014    512.1891   1302.6895   2.77     64806.31     2.605     1.838      5.845      83.7743  16.0210         70
 5.35   0.0012    532.4780    518.7072  42.64     76058.75     3.332     2.704     12.259     83.73637  15.8471         71
 6.37   0.0227    501.2008    863.6277 -73.06     4009.004     0.729     0.454      3.003     83.76482  19.0424         72
 6.88   0.0067    514.8291   1460.6050  23.71     13661.82     2.174     1.173      9.371     83.79326  17.7112         73
 9.16   0.0228    513.5114   1178.5463 -51.67     3996.419     0.503     0.494      3.019     83.73637  19.0458         74
 4.72   0.0100    539.8799    999.7950  63.00     9141.529     1.209     1.168      4.028      83.7743  18.1475         75
 3.50   0.0001    587.6208   1315.8385  12.88      1612705     2.657     2.602      4.504     83.80274  12.5311         76
 5.39   0.0073    558.6192   1041.6226 -49.65     12438.98     1.473     1.301      4.444     83.80274  17.8130         77
 4.09   0.0025    572.2031   1242.7196  38.49      36871.6     1.751     1.723      4.237     83.79326  16.6333         78
 3.96   0.0018    580.0729    144.9288  70.17     49758.77     1.890     1.825      4.383     83.70791  16.3078         79
 3.50   0.0000    630.7131    483.2363  13.54      2491630     2.827     2.779      4.961      83.7743  12.0588         80
 4.16   0.0018    581.5784    319.2341  61.20     49720.75     1.927     1.876      4.566     83.80274  16.3087         81
 6.89   0.0108    570.7512     45.9504  48.62     8447.536     1.416     1.002      5.804     83.82169  18.2332         82
 6.29   0.0130    573.8788   1337.0791 -66.01      6985.84     1.088     0.942      5.052     83.74586  18.4395         83
 9.08   0.0106    570.5884   1447.2085 -20.04       8616.4     0.773     0.441      4.364     83.74586  18.2117         84
 6.23   0.0038    596.4893    782.4854  81.04     23914.79     2.181     1.973      9.613     83.72688  17.1033         85
 6.19   0.0156   1001.0735   1555.3445  15.77     5847.863     1.037     0.745      3.579     83.73637  18.6325         86
 8.06   0.0155    928.0015   1322.3193 -89.58     5870.493     0.751     0.672      4.064     83.79326  18.6283         87
 7.50   0.0220    912.4890    838.6716 -89.47     4134.468     0.940     0.470      3.311     83.73637  19.0089         88
 4.02   0.0028    899.8826    302.7993  34.45     32935.73     1.810     1.755      4.366     83.78378  16.7558         89
 3.50   0.0000    881.5768    183.9508 -13.91      2498056     2.956     2.893      6.073     83.82169  12.0560         90
 6.18   0.0123    896.3508    538.8231 -43.55     7429.499     1.212     0.849      5.060     83.82169  18.3726         91
 3.50   0.0002    880.0118   1592.4092  59.51     580937.1     2.485     2.419      4.351     83.74586  13.6397         92
 6.68   0.0043    879.3483    224.1944  85.96     21330.67     4.026     1.518     14.748     83.84064  17.2275         93
 5.78   0.0065    869.0080   1103.1798 -34.02     13931.62     1.486     1.474      5.531     83.76482  17.6900         94
 3.50   0.0001    858.9609   1224.4232  23.63      1489812     2.690     2.654      4.489     83.80274  12.6172         95
 8.57   0.0145    877.2705   1176.7744 -72.54     6260.859     0.835     0.351      3.500     83.79326  18.5584         96
 7.91   0.0204    859.0000   1156.5350   0.00     4464.034     1.161     0.289      3.004     83.84064  18.9257         97
 7.26   0.0150    843.1048   1106.8746 -75.24     6056.776     0.978     0.710      4.560     83.72688  18.5944         98
 7.07   0.0089    837.5580   1247.4752   2.17     10170.96     1.388     1.075      6.954     83.76482  18.0316         99
 6.16   0.0122    836.2336    298.4433 -87.05     7489.914     1.215     1.019      4.217     83.82169  18.3638        100
 3.78   0.0027    822.4514    654.3923  62.24     33729.77     1.906     1.701      4.258     83.83117  16.7300        101
 4.40   0.0029    802.7780   1378.5226 -60.86     31000.05     1.725     1.703      4.271     83.79326  16.8216        102
 3.81   0.0010    798.0674    695.6057  88.39     89183.51     2.555     2.010      5.408     83.83117  15.6743        103
 4.84   0.0063    799.9536     41.0705  76.53     14402.62     1.478     1.354      4.290     83.76482  17.6539        104
 6.63   0.0069    774.1362   1427.0630 -85.17     13119.21     1.892     1.255      8.051     83.75534  17.7552        105
 5.64   0.0130    766.1399    391.8227  50.41     6985.933     1.264     1.061      4.240     83.81222  18.4394        106
 5.48   0.0117    742.3915    556.7040  78.10     7766.457     1.277     1.149      4.470     83.76482  18.3244        107
 3.50   0.0000    723.6109    404.8487  -7.98      1940996     2.737     2.702      4.659     83.82169  12.3299        108
 3.50   0.0003    726.2004    848.3845   5.24     345900.7     2.389     2.348      4.467     83.76482  14.2026        109
 5.99   0.0160    726.7936   1178.3159  -8.79      5682.92     0.905     0.765      3.721      83.7743  18.6636        110
 5.37   0.0127    715.3687    808.1308 -14.17      7162.97     1.204     0.957      3.837     83.78378  18.4123        111
 5.12   0.0126    708.2617   1163.7617  76.32     7208.809     1.319     1.038      4.031     83.78378  18.4053        112
 7.48   0.0106    703.4436   1338.5859  50.36     8589.618     1.193     0.802      5.630     83.79326  18.2151        113
 4.41   0.0070    702.1777    952.2957 -57.06     12995.33     1.516     1.368      4.086     83.76482  17.7655        114
 5.73   0.0085    685.3104    644.2101 -60.68     10707.96     1.360     1.290      4.792      83.7743  17.9757        115
 7.44   0.0092    680.8766    543.4276 -43.60     9894.949     1.427     0.901      6.592      83.7743  18.0615        116
 3.50   0.0003    648.0181   1464.2283  13.82     340857.8     2.374     2.349      4.332     83.78378  14.2186        117
 5.22   0.0106   1569.9100     92.4346 -54.30     8564.703     1.158     1.035      3.981     83.74586  18.2182        118
 4.14   0.0017    639.2830    536.7927  -3.16     53397.24     1.966     1.893      4.520      83.7743  16.2312        119
 5.14   0.0158    623.0889   1581.3657 -33.27     5769.631     1.048     0.838      3.482     83.76482  18.6471        120
 6.30   0.0151    604.9369    586.3323 -13.78     6013.932     1.013     0.756      3.791     83.74586  18.6021        121
 4.60   0.0131   1584.5095   1108.9586   4.37     6925.509     1.145     0.966      3.728     83.74586  18.4489        122
 5.20   0.0070   1542.0271    654.5812 -83.10     12923.55     1.471     1.249      4.545     83.79326  17.7715        123
 3.50   0.0003   1563.1943    304.0779  33.95     301243.6     2.267     2.215      4.423     83.78378  14.3527        124
 4.98   0.0082   1565.9387     21.8800  79.20     11033.79     1.343     1.153      4.167     83.72688  17.9432        125
 5.93   0.0170   1560.3761    861.1697 -67.44     5361.608     0.918     0.685      3.475     83.76482  18.7268        126
 3.50   0.0003   1557.4879    487.5964 -65.71     298829.9     2.294     2.287      4.460     83.76482  14.3614        127
 7.68   0.0122   1565.7225    784.5153 -18.36      7428.85     1.194     0.861      5.413     83.72688  18.3727        128
 3.59   0.0012    929.3309   1178.3392  65.57     77613.57     2.089     2.039      4.228     83.74586  15.8252        129
 4.54   0.0010   1552.2527    682.1414 -13.12     89975.45     3.556     3.280     10.999     83.76482  15.6647        130
 4.19   0.0051   1541.2693    135.0337  18.48     17812.48     1.541     1.467      4.206     83.79326  17.4232        131
 6.05   0.0221   1503.8435    723.1686 -42.66     4124.613     0.761     0.566      3.138     83.82169  19.0115        132
 3.50   0.0006   1506.6525    269.2638   7.18     163136.5     2.182     2.111      4.379     83.75534  15.0186        133
 8.47   0.0133    986.5678    453.7992  -8.77     6852.883     1.032     0.475      4.496     83.78378  18.4603        134
 4.00   0.0023   1514.2882    392.6559 -58.37     40129.29     1.812     1.777      4.321     83.73637  16.5413        135
 5.03   0.0093    938.8495   1066.8735 -33.34     9754.581     1.334     1.209      3.911     83.72688  18.0770        136
 7.70   0.0203    999.8006   1273.5909  70.88     4487.951     0.762     0.448      3.387     83.74586  18.9199        137
 3.61   0.0006    984.3760    558.4080  38.30     150971.4     2.251     2.207      4.397     83.78378  15.1028        138
 7.90   0.0099   1029.7847    302.2120  10.78     9157.045     1.134     1.000      6.371      83.7743  18.1456        139
 3.58   0.0006   1094.6384    778.1648  69.19     153405.9     2.275     2.184      4.543     83.80274  15.0854        140
 3.53   0.0005   1079.4926    512.2214  54.14     168929.5     2.274     2.244      4.511     83.75534  14.9807        141
 4.19   0.0026   1107.0248    428.0919  60.25     35259.77     1.941     1.743      4.567     83.75534  16.6818        142
 3.80   0.0017   1104.1162    751.8383  -5.00     54408.71     2.060     1.964      4.422      83.7743  16.2108        143
 6.96   0.0081   1119.7220    329.5727  63.96     11250.44     1.765     1.199      7.169      83.7743  17.9221        144
 5.06   0.0071   1407.5315    308.2361 -44.22     12875.39     1.439     1.279      4.074     83.79326  17.7756        145
 8.97   0.0125   1109.7917    478.5934  71.14     7267.667     0.771     0.447      4.425     83.76482  18.3965        146
 4.15   0.0051   1434.7892    224.7439  46.04     17948.34     1.583     1.494      4.205     83.82169  17.4149        147
 3.50   0.0001   1433.9342   1090.2458  30.52     732667.7     2.488     2.469      4.317      83.7743  13.3877        148
 6.44   0.0028   1356.6797   1135.6938  36.20     32107.33     3.580     2.833     16.515      83.7174  16.7835        149
 3.71   0.0010   1418.8335   1126.1434  84.99     93169.78     2.156     2.041      4.408     83.80274  15.6268        150
 4.17   0.0069   1439.2010    619.2320   9.88      13194.4     1.402     1.321      4.021      83.7743  17.7490        151
 3.92   0.0020   1372.0837   1018.8958  -9.03      45001.7     1.852     1.822      4.440     83.67944  16.4169        152
 5.32   0.0106   1414.9160   1386.2550  60.07     8579.895     1.344     1.047      3.947     83.73637  18.2163        153
