#   1 KRON_RADIUS            Kron apertures in units of A or B                         
#   2 MAGERR_APER            RMS error vector for fixed aperture mag.                   [mag]
#   3 Y_IMAGE                Object position along y                                    [pixel]
#   4 X_IMAGE                Object position along x                                    [pixel]
#   5 THETA_IMAGE            Position angle (CCW/x)                                     [deg]
#   6 FLUX_APER              Flux vector within fixed circular aperture(s)              [count]
#   7 A_IMAGE                Profile RMS along major axis                               [pixel]
#   8 THRESHOLD              Detection threshold above background                       [count]
#   9 B_IMAGE                Profile RMS along minor axis                               [pixel]
#  10 FLUX_RADIUS            Fraction-of-light radii                                    [pixel]
#  11 FLUXERR_APER           RMS error vector for aperture flux(es)                     [count]
#  12 MAG_APER               Fixed aperture magnitude vector                            [mag]
#  13 NUMBER                 Running object number                                     
 3.50   0.0000    181.0213   1105.8226 -42.38     620290.4     6.679           15     6.089      6.836  0.003977269  13.5685          1
 3.50   0.0000     52.4330     61.7851  -1.53     26120.51     6.647           15     6.022      9.498  0.003977269  17.0075          2
 3.50   0.0000     15.7535    983.4631 -88.04     4248.485     4.568           15     2.012      5.935  0.003975469  18.9794          3
 3.50   0.0000     58.9526   1076.9381  82.68     40035.16     2.124           15     1.994      4.099  0.003975919  16.5439          4
 3.50   0.0000     16.2663    382.9737 -60.13     359.9702     1.470           15     1.238      3.809  0.003977269  21.6593          5
 3.50   0.0000     17.0164     89.4733 -38.81      4216.13     1.668           15     1.628      4.122  0.003979518  18.9877          6
 3.50   0.0000     13.8116   1444.2358 -43.73     11056.44     1.732           15     1.705      3.742  0.003977719  17.9410          7
 4.25   0.0000     13.2794    839.4593 -64.29     142.4301     1.755           15     1.135      4.372  0.003975469  22.6660          8
 3.50   0.0000      9.1434   1182.2228 -58.17     164.5332     1.088           15     1.052      3.519  0.003978618  22.5094          9
 3.50   0.0001      5.7230   1467.8273  -3.91     63.66095     1.183           15     0.926      3.215  0.003782168  23.5403         10
 4.00   0.0000      3.6141    143.2476  67.80     137.8976     1.689           15     1.561      4.912  0.003458932  22.7011         11
 5.03   0.0001      3.6377    183.7684 -16.02        37.91     1.193           15     0.959      4.694  0.003463585  24.1031         12
 6.83   0.0002      2.4338    843.2668  19.71      18.0223     0.732           15     0.456      3.565  0.003236018  24.9105         13
 6.06   0.0003      1.8042    302.4686   3.74     10.79272     0.943           15     0.716      4.415  0.003106231  25.4672         14
 3.78   0.0000     23.8595    365.4591   4.31     803.2454     1.406           15     1.341      3.862  0.003975018  20.7879         15
 3.50   0.0000     23.0221    381.4540  24.11     552.9154     1.355           15     1.214      4.005  0.003978618  21.1934         16
 3.50   0.0001     17.3073   1213.4205  41.48     77.21664     0.956           15     0.859      3.341  0.003975919  23.3307         17
 3.50   0.0000     14.7703   1561.4890  -0.83     97.77748     0.945           15     0.720      2.977  0.003975469  23.0744         18
 5.13   0.0001     15.4900    192.9881  -3.42      62.4994     0.788           15     0.499      3.054  0.003976369  23.5603         19
 3.50   0.0000     33.1031   1108.5421  62.13      370.869     2.061           15     1.306      4.689  0.003973668  21.6269         20
 5.07   0.0001     22.8381    696.7360  14.91     79.95026     0.927           15     0.843      3.601  0.003976819  23.2929         21
 5.64   0.0001     20.9432    212.0454 -45.15     41.17612     0.892           15     0.530      3.234  0.003976369  24.0134         22
 4.02   0.0001     24.2986   1451.6597 -46.75     53.40349     1.018           15     0.855      3.158  0.003973668  23.7311         23
 4.67   0.0000     32.4480    325.0097 -26.15     237.4343     1.563           15     1.264      4.490  0.003978618  22.1111         24
 6.92   0.0001     24.8343    529.8266  45.19     50.65125     0.759           15     0.567      4.033  0.003977269  23.7885         25
 6.71   0.0000     25.9111    701.3083  17.52     175.0121     0.916           15     0.682      3.932  0.003973218  22.4423         26
 5.31   0.0000     33.6394     14.6521  53.71     101.2123     0.979           15     0.853      4.319  0.003977269  23.0369         27
 3.50   0.0000     37.0468   1519.9733 -74.83     226.6668     1.084           15     1.067      3.426  0.003978618  22.1615         28
 4.62   0.0000     43.2929    438.5793 -53.91     209.2427     1.729           15     1.304      4.771  0.003975919  22.2484         29
 3.50   0.0000     38.0196   1169.1295  12.61     197.8494     1.289           15     1.179      3.776  0.003979068  22.3092         30
 3.50   0.0000     79.0623    535.8591 -63.07     35687.48     1.999           15     1.965      4.457  0.003975018  16.6687         31
 3.80   0.0000     41.4935    913.7980 -64.45     236.3374     1.227           15     1.051      3.576  0.003975469  22.1162         32
 7.06   0.0001     33.9667   1066.4921  58.09     39.19388     0.803           15     0.311      2.943  0.003974569  24.0670         33
 3.50   0.0000     38.6000   1224.6489 -30.78     95.64964     1.228           15     0.776      2.915  0.003979518  23.0983         34
 3.98   0.0000     49.4767    263.4285 -82.12      151.119     1.552           15     1.130      4.049  0.003976369  22.6017         35
 4.64   0.0001     42.6057    226.7916  40.20     46.83906     1.079           15     0.654      4.063  0.003975919  23.8735         36
 6.74   0.0003     39.4747   1126.5171 -43.85     16.57567     0.504           15     0.495      3.023  0.003974118  25.0013         37
 3.79   0.0001     41.4937   1000.3300  -1.36     44.30566     1.054           15     0.499      2.524  0.003974569  23.9339         38
 3.50   0.0002     46.5432   1429.2083  87.55     19.63328     0.923           15     0.722      2.543  0.003979967  24.8175         39
 6.67   0.0001     45.7285    473.0389 -10.42     49.70917     0.733           15     0.681      3.984  0.003976819  23.8089         40
 3.50   0.0000     49.4534   1433.9270   9.10     280.3356     1.096           15     0.936      3.440  0.003975018  21.9308         41
 5.18   0.0000     46.8039    664.5821  -3.69     120.2277     0.953           15     0.724      3.995  0.003975469  22.8500         42
 6.15   0.0000     50.2181    119.8695  39.13     103.2085     0.807           15     0.669      4.227  0.003978618  23.0157         43
 8.27   0.0001     49.3352    879.6919  46.34     80.99802     0.567           15     0.339      3.402  0.003975919  23.2788         44
 3.50   0.0000     74.1091    126.4795 -33.04     1749.684     1.503           15     1.437      3.937  0.003974118  19.9426         45
 5.86   0.0001     58.9934    469.1689  53.55     48.58615     0.918           15     0.474      3.919  0.003977269  23.8337         46
 3.50   0.0000     65.0521   1146.3165  -0.29     126.3129     1.444           15     1.193      3.680  0.003974118  22.7964         47
 5.64   0.0001     57.5757   1240.1871 -21.10     29.02008     0.749           15     0.444      2.533  0.003976369  24.3933         48
 4.17   0.0001     65.6561   1514.5503 -81.65     35.55138     0.917           15     0.484      2.031  0.003976369  24.1729         49
 4.99   0.0001     66.6765   1414.3184 -42.10      35.4508     1.020           15     0.862      3.693  0.003975469  24.1759         50
 7.28   0.0000     68.4343     17.8153  78.11     87.65925     1.055           15     0.885      5.868  0.003977269  23.1930         51
 3.50   0.0001     70.9527   1320.7626 -65.92     71.19628     1.010           15     0.818      2.578  0.003977719  23.4189         52
 8.63   0.0000     75.6857     80.4453 -38.45     225.9118     1.551           15     0.939      9.305  0.003975919  22.1652         53
 3.50   0.0000    120.9301    787.4855 -53.39     53124.15     2.055           15     2.021      4.207  0.003973668  16.2368         54
 3.50   0.0000     81.3387    419.7172 -81.40     316.4415     1.587           15     1.314      4.254  0.003974569  21.7993         55
 3.57   0.0000     89.6813    375.3947 -15.16     646.2961     2.397           15     2.065      5.490  0.003977269  21.0239         56
 7.72   0.0001     73.9792    732.2733  88.65     66.83943     0.662           15     0.446      3.395  0.003979068  23.4874         57
 3.50   0.0000     95.5787     54.3880  31.88     2567.876     1.639           15     1.612      3.978  0.003976369  19.5261         58
 3.84   0.0000    234.1185    401.6320 -47.47     23862.49     9.253           15     7.769     13.309  0.003976369  17.1057         59
 3.50   0.0000    192.5920    316.2872 -63.32     181221.8     2.930           15     2.351      4.562  0.003976819  14.9045         60
 3.50   0.0001     78.5913   1031.9655  -4.49     56.10416     1.095           15     0.928      3.468  0.003977719  23.6775         61
 7.43   0.0001     73.6413   1255.6760 -46.35     47.11753     0.584           15     0.329      2.296  0.003975919  23.8670         62
 6.48   0.0000     82.9982    930.8804  35.38     154.5092     1.250           15     0.967      5.632  0.003977269  22.5776         63
 5.35   0.0000     87.5067    757.2294  64.46     199.5435     1.285           15     1.195      4.644  0.003975469  22.2999         64
 3.79   0.0000     86.9773   1358.2859 -79.17      89.7002     1.119           15     0.894      3.526  0.003976819  23.1680         65
 6.23   0.0000     86.7000    862.2626 -36.18     111.0925     1.407           15     0.998      4.865  0.003974569  22.9358         66
 5.33   0.0000    141.2934    884.3462  52.27     143.5089     2.182           15     1.014      5.371  0.003974569  22.6578         67
 5.31   0.0001     90.7042   1043.9059  53.72     61.29579     1.594           15     0.914      4.222  0.003972317  23.5814         68
 3.50   0.0000     90.6289    494.1025 -78.53     234.0137     1.205           15     1.125      3.855  0.003974118  22.1269         69
 6.27   0.0001     87.7103    810.8326 -66.09     46.62616     0.934           15     0.667      3.674  0.003975469  23.8784         70
 6.08   0.0001     85.0338   1559.0720  45.28     49.50565     0.911           15     0.525      4.854  0.003976819  23.8134         71
 6.91   0.0001     85.7778    923.1917 -46.11     66.20245     0.760           15     0.561      4.035  0.003976369  23.4978         72
 3.79   0.0000     97.1720    451.1183 -15.24     470.0324     2.158           15     1.288      4.560  0.003976819  21.3697         73
 4.47   0.0000     94.6154   1074.7805  33.19     103.4967     1.369           15     1.123      3.889  0.003976369  23.0127         74
 3.75   0.0000     94.2044    387.5457   0.79     204.5852     0.925           15     0.726      3.233  0.003979967  22.2728         75
 5.99   0.0001     95.9941    559.7446 -89.68     67.18766     0.676           15     0.436      3.205  0.003980417  23.4818         76
 7.61   0.0000     93.6627    870.6544 -44.67     108.8185     0.584           15     0.329      2.280  0.003975469  22.9582         77
 5.82   0.0000    101.7271    517.3472  34.32     90.06333     1.114           15     0.881      4.818  0.003975018  23.1636         78
 5.32   0.0000    112.7186    268.6587  56.26     146.3823     1.646           15     1.251      5.271  0.003975018  22.6363         79
 4.54   0.0001    107.3400    861.3597  41.72     83.44581     0.978           15     0.859      3.534  0.003977269  23.2465         80
 6.20   0.0004    106.0743   1098.2151  -0.83     10.93811     0.913           15     0.742      3.787  0.003979518  25.4526         81
 4.59   0.0000    114.3043    414.1663 -68.21     145.4033     1.226           15     1.013      4.280  0.003974118  22.6436         82
 5.58   0.0001    106.9801   1420.9814 -40.64     55.57425     0.798           15     0.763      3.639  0.003976819  23.6878         83
 6.57   0.0001    106.4793    180.0427  -2.31     65.58624     0.780           15     0.499      3.911  0.003975469  23.5080         84
 3.51   0.0001    109.9083   1513.3596  20.21      40.0077     0.884           15     0.681      2.911  0.003973668  24.0446         85
 3.50   0.0001    116.1240    989.4617 -58.20     80.42583     1.138           15     1.019      3.320  0.003974569  23.2865         86
 4.21   0.0000    116.2476     65.0520  14.02      178.955     1.548           15     1.061      4.471  0.003977719  22.4181         87
 3.50   0.0000    116.7219    152.4536 -86.25     135.2452     1.123           15     0.971      3.568  0.003974569  22.7222         88
 4.01   0.0001    117.6549    911.8856 -66.63     79.51769     0.935           15     0.682      2.701  0.003975018  23.2988         89
 3.64   0.0000    125.2984    492.6189  -0.32     141.9323     1.665           15     1.219      4.363  0.003975018  22.6698         90
 3.50   0.0000    161.4541   1466.8248 -58.74     32927.47     1.941           15     1.902      3.928  0.003979068  16.7561         91
 7.32   0.0002    118.4848   1400.5156 -45.05     24.65419     0.503           15     0.497      3.016  0.003972767  24.5703         92
 4.30   0.0000    130.2065    416.2744  57.73     148.3849     1.100           15     1.057      4.081  0.003979068  22.6215         93
 3.50   0.0001    127.2841   1476.9161  64.33     63.82938     0.882           15     0.673      2.943  0.003973668  23.5374         94
 3.66   0.0000    128.3044    884.3072  39.90     109.8974     0.974           15     0.855      3.352  0.003972767  22.9475         95
 8.22   0.0001    129.4937    461.4671  79.24     44.13167     0.500           15     0.499      3.000  0.003974569  23.9381         96
 7.97   0.0001    134.2148     97.6237 -71.27     42.15534     0.773           15     0.439      3.772  0.003975919  23.9879         97
 7.98   0.0008    135.8455   1130.6890 -23.15     5.252863     0.893           15     0.682      3.838  0.003974569  26.2490         98
 6.93   0.0002    134.2994   1274.6626  43.05     28.52819     0.564           15     0.340      3.383  0.003975018  24.4118         99
 4.85   0.0000    145.7873    352.3016 -52.51     230.6885     1.442           15     1.181      4.207  0.003974569  22.1424        100
 5.52 5052.9961    138.1961   1599.6533 -73.31  6.46718e-07     0.751           15     0.443      2.044  0.003009082  43.5232        101
 3.50   0.0000    169.2865    875.6407 -68.74     9927.315     1.816           15     1.770      4.062  0.003975919  18.0579        102
 3.50   0.0000    150.7619   1278.9016  88.63     198.0515     1.163           15     1.081      3.538  0.003972767  22.3081        103
 3.72   0.0000    164.2101   1444.3116  58.08     682.5005     1.478           15     1.334      3.513  0.003976819  20.9647        104
 3.50   0.0000    154.5426     80.6307 -48.09     139.5345     1.063           15     0.915      2.974  0.003978169  22.6883        105
 4.37   0.0001    155.2148   1578.5200  33.04     73.11519     0.963           15     0.777      3.707  0.003978169  23.3900        106
 4.42   0.0000    164.9884    574.8645  77.32      121.802     1.398           15     1.054      4.006  0.003979068  22.8359        107
 5.40   0.0001    154.6382    822.7685 -65.92     35.51564     0.715           15     0.649      3.510  0.003977719  24.1740        108
 6.33   0.0001    155.8310   1007.3853 -70.63     33.78088     0.757           15     0.442      2.860  0.003978169  24.2283        109
 3.50   0.0000    165.7110    102.5932 -26.53       586.66     1.316           15     1.213      4.062  0.003975469  21.1290        110
 6.06   0.0001    159.1147    491.3987   9.60     71.09337     1.137           15     0.669      4.589  0.003976369  23.4204        111
 3.98   0.0000    168.5005   1367.4280  -3.63     173.6341     1.273           15     1.097      3.684  0.003974118  22.4509        112
 7.54   0.0000    165.9088   1054.5520 -36.52     89.85935     1.316           15     1.173      3.686  0.003974118  23.1661        113
 3.50   0.0001    164.4528   1196.4745  22.06     36.66644     0.914           15     0.886      3.144  0.003974569  24.1393        114
 4.33   0.0000    167.9214    649.5801  10.30     125.2557     1.346           15     1.111      4.149  0.003977269  22.8055        115
 3.88   0.0000    179.2475    573.4441  24.34     361.1427     1.806           15     1.458      4.930  0.003977719  21.6558        116
 4.91   0.0001    174.9355   1199.0177 -65.94     57.02429     1.231           15     1.040      4.424  0.003977719  23.6598        117
 7.05   0.0001    168.5139    168.5129  44.91     52.98375     0.504           15     0.496      3.022  0.003973668  23.7396        118
 7.80   0.0001    172.5058     30.4449  54.32     43.56706     0.503           15     0.494      3.019  0.003973668  23.9521        119
 3.50   0.0000    258.9322    995.8043 -40.78     86268.07     2.197           15     2.091      4.184  0.003979068  15.7104        120
 3.68   0.0000    191.7790   1349.0507 -29.04     920.3113     1.434           15     1.382      3.724  0.003977719  20.6402        121
 4.98   0.0000    185.8884   1353.4352 -60.76     288.4408     1.564           15     1.434      4.014  0.003975919  21.8999        122
 6.84   0.0000    182.3312     58.4811 -53.73     88.08255     0.998           15     0.697      4.105  0.003975018  23.1878        123
 6.87   0.0001    189.4915   1026.0365  72.61     42.92681     1.294           15     1.216      3.236  0.003974569  23.9682        124
 6.21   0.0001    186.4667    834.7823 -22.86     57.11631     1.172           15     0.796      4.378  0.003977719  23.6581        125
 3.50   0.0000    209.8897    826.0682  -8.26     2934.583     5.062           15     2.311      7.014  0.003974569  19.3811        126
 7.38   0.0001    183.4921    493.5126  45.65     46.89184     0.502           15     0.498      3.012  0.003973217  23.8723        127
 3.62   0.0000    229.0160    560.6641 -22.76     2437.212     4.037           15     3.709      8.814  0.003977269  19.5828        128
 5.16   0.0000    207.8212    348.2373  42.35     895.2056     2.328           15     1.613      4.609  0.003977719  20.6702        129
 3.50   0.0000    205.7506    547.4508  51.32     1810.052     1.491           15     1.485      3.743  0.003978618  19.9058        130
 5.43   0.0000    194.1587    266.3038  -3.04      208.841     1.868           15     1.194      4.729  0.003973218  22.2505        131
 3.50   0.0000    264.9563     65.7550 -47.06     65206.12     2.161           15     2.086      4.401  0.003978169  16.0143        132
 7.11   1.1579    193.7894   1158.3464 -18.24  0.003731868     0.969           15     0.853      4.295  0.003979068  34.1202        133
 5.54   0.0000    194.7835    447.7415 -54.85     123.8584     1.067           15     0.894      4.288  0.003977269  22.8177        134
 3.50   0.0000    211.4027   1304.6294 -28.12     1704.765     1.498           15     1.454      3.500  0.003975919  19.9708        135
 3.88   0.0000    209.9436    683.1042 -79.14     426.9415     1.698           15     1.384      4.109  0.003973668  21.4741        136
 4.21   0.0000    202.4782    249.1519 -60.10     235.9079     1.270           15     1.184      3.982  0.003975469  22.1181        137
 6.49   0.0000    204.5183    935.3228 -12.20     90.28236     1.134           15     0.832      3.717  0.003975469  23.1610        138
