#   1 KRON_RADIUS            Kron apertures in units of A or B                         
#   2 MAGERR_APER            RMS error vector for fixed aperture mag.                   [mag]
#   3 Y_IMAGE                Object position along y                                    [pixel]
#   4 X_IMAGE                Object position along x                                    [pixel]
#   5 THETA_IMAGE            Position angle (CCW/x)                                     [deg]
#   6 FLUX_APER              Flux vector within fixed circular aperture(s)              [count]
#   7 A_IMAGE                Profile RMS along major axis                               [pixel]
#   8 B_IMAGE                Profile RMS along minor axis                               [pixel]
#   9 FLUX_RADIUS            Fraction-of-light radii                                    [pixel]
#  10 FLUXERR_APER           RMS error vector for aperture flux(es)                     [count]
#  11 MAG_APER               Fixed aperture magnitude vector                            [mag]
#  12 NUMBER                 Running object number                                     
 3.91   0.0030     54.0677     63.6173  -6.96     28270.34     4.659     4.453      8.537     77.31852  16.9217          1
 3.72   0.0174     17.3630    984.8641 -88.08     4831.267     3.946     1.796      6.330     77.29229  18.8398          2
 3.50   0.0232     18.7792     91.0173 -64.27     3612.279     1.540     1.446      3.085     77.29229  19.1555          3
 3.50   0.0084     15.4457   1445.5848 -51.57     9977.928     1.657     1.523      3.106     77.30103  18.0524          4
 6.01   0.4256      7.9059   1469.7231 -62.96     197.1118     0.891     0.213      1.444      77.2398  22.3132          5
 3.50   0.6638      4.5543    960.5181  67.74     114.5861     1.221     0.204      2.418     70.03381  22.9022          6
 0.00  99.0000      5.0201     54.9799 -45.00    -93.34844     1.229     0.289    -10.182     71.62754  99.0000          7
 6.28   0.3239      4.2469    145.0632 -10.48     231.4532     1.031     0.624      2.887     69.03252  22.1388          8
 6.73   0.3242     10.5274   1183.3799  16.77     259.0704     0.842     0.456      2.588       77.336  22.0165          9
 5.10   0.2505     18.1513    384.1560  42.53     335.1416     0.978     0.838      2.798     77.30978  21.7369         10
 7.27   0.1873     24.4483    383.4137 -78.66     448.3119     1.489     0.404      3.934     77.31852  21.4210         11
 3.54   0.1127     25.4016    367.1154 -13.70      744.637     1.355     1.112      2.690     77.28354  20.8701         12
 3.50   0.0018     60.5800   1078.2439  79.77     45646.71     1.941     1.807      3.414     77.30978  16.4015         13
 7.07   1.5927     27.9201   1357.2933  87.28      52.6624     0.837     0.454   -103.950     77.23104  23.7462         14
 4.30   0.2230     31.3549   1108.9028  74.59     376.1529     0.853     0.705      2.708     77.22229  21.6116         15
 7.23   0.2476     34.4379    326.1240 -84.99     338.9392     1.041     0.952      3.179      77.2748  21.7247         16
 6.89   0.1684     35.2360   1110.4044 -67.05     498.4948     0.946     0.850      3.274     77.30103  21.3058         17
 4.25   0.2149     39.8006   1170.7745 -35.98     390.5943     1.362     0.566      2.218      77.2748  21.5707         18
 3.56   0.4176     38.8175   1521.2511  34.17     201.0269     1.138     0.596      2.187     77.29229  22.2919         19
 0.00   1.1707     36.6734    334.0000 -28.22     71.74971     0.910     0.211     -2.364     77.34474  23.4104         20
 3.50  99.0000     40.3349   1225.9261 -49.54    -27.21165     1.033     0.301      1.183     77.23104  99.0000         21
 4.30   0.2248     43.2110    915.4620 -36.27     373.5397     1.110     0.691      2.647     77.32726  21.6192         22
 3.50   0.0019     80.9682    537.4006 -63.20     44278.43     1.863     1.768      3.314     77.28354  16.4345         23
 7.59   0.2197     44.8832    441.2554  63.30     379.6018     0.870     0.216      2.364     76.80098  21.6017         24
 8.18   0.1414     43.3649     46.9432 -28.76     593.7119     0.927     0.207      2.576     77.30978  21.1161         25
 3.50   0.4842     47.1420    473.7140  63.43     173.1767     0.926     0.202      1.290     77.20478  22.4538         26
 7.45   0.1157     47.3210     47.5862  42.35     705.2476     0.603     0.311      3.109     75.15508  20.9291         27
 6.65  99.0000     47.3485     29.0000   0.00    -14.02348     0.807     0.477      3.467     77.34474  99.0000         28
 6.87   0.2634     48.2545    440.0000   0.00     318.9455     0.713     0.436      3.093     77.34474  21.7907         29
 6.12   0.4038     51.0359   1435.1760 -34.24      207.889     0.783     0.497      2.445     77.29229  22.2554         30
 7.31  99.0000     52.3333    266.6667  45.00    -12.99653     0.577     0.333      2.370      77.2398  99.0000         31
 3.92   0.0606     75.8943    127.6811 -33.15     1384.369     1.254     1.163      2.908      77.2398  20.1969         32
 0.00   1.3010     72.8091    953.8091  45.00     64.48951     1.181     0.289      7.086     77.25729  23.5263         33
 3.95   0.0911     92.0417    377.0394 -77.59     922.0577     1.893     1.601      4.508     77.31852  20.6381         34
 5.44   0.2163     82.9583    421.5509 -54.03     388.1814     1.270     0.623      2.899     77.31852  21.5774         35
 3.50   0.0013    122.5924    788.9217 -59.46        65518     1.960     1.816      3.402     77.30978  16.0091         36
 0.00  99.0000     83.6666    179.0219  27.82    -221.0516     0.932     0.206      5.589     77.30978  99.0000         37
 3.67   0.0379     97.3299     56.0065 -20.83     2209.889     1.351     1.269      2.977     77.07334  19.6891         38
 8.46   0.2898     92.1014    495.2714 -63.06     289.4679     0.886     0.214      2.216     77.24855  21.8960         39
 0.00  99.0000     94.3854     89.6815  47.31    -302.7089     0.592     0.322      0.000     77.30978  99.0000         40
 6.54   0.1292     99.1556    452.2040 -33.17     650.1507     1.373     0.783      3.710     77.32726  21.0175         41
 3.50  99.0000    107.9520    185.3654 -61.41    -55.83803     0.933     0.206      0.450     77.30978  99.0000         42
 7.17   0.5527    114.0206    270.3127 -89.22     151.8623     0.829     0.463      3.394     77.29229  22.5964         43
 7.21  99.0000    118.0000     66.5485  57.15    -44.16618     0.773     0.319      3.376     77.34474  99.0000         44
 3.50   0.0023    163.1416   1468.1309 -54.85     37106.63     1.857     1.772      3.324     77.26604  16.6264         45
 7.53   0.3179    132.0424    418.9576  45.00     264.0332     1.201     0.289      2.577     77.29229  21.9959         46
 3.50  99.0000    131.3821     62.3194 -47.19    -267.5255     0.591     0.323      0.416     77.31852  99.0000         47
 0.00  99.0000    141.0000    178.9659   0.00      -230.48     0.878     0.289     -4.608      77.2748  99.0000         48
 3.50   0.0099    171.1748    877.1526  75.95     8442.527     1.555     1.507      3.136     77.32726  18.2338         49
 7.08   0.4397    152.3333   1279.3936 -43.21     190.9992     0.602     0.315      1.832       77.336  22.3474         50
 3.89   0.0874    165.8038   1445.6473   5.08     961.1887     1.275     0.973      2.875       77.336  20.5930         51
 3.50  99.0000    163.1070    126.3048 -63.08    -258.0719     0.936     0.201      0.503     77.03825  99.0000         52
 6.79   0.6278    163.9584    629.0416  45.00     133.7263     1.223     0.289      5.900     77.30103  22.7345         53
 3.94   0.2780    167.4873    104.0908 -30.29     301.7208     1.111     0.868      2.779     77.22229  21.8510         54
 3.50   0.2178    170.9897   1368.0988 -45.99     385.2418     1.302     0.607      2.244     77.25729  21.5857         55
 6.94   0.2999    169.0000    651.7692 -90.00      279.822     0.679     0.421      2.788      77.2748  21.9328         56
 5.07   0.1438    181.0743    574.6081  50.74     584.1107     1.295     0.874      3.960     77.31852  21.1338         57
 7.51   0.1869    187.0535   1354.2334  56.76     449.1576     1.421     0.779      4.976     77.31852  21.4190         58
 4.23   0.0744    193.5168   1350.4445 -41.46     1127.148     1.303     0.927      2.989     77.26604  20.4200         59
 3.96   0.0232    211.6080    827.3951  -9.36     3617.159     3.727     1.897      7.251      77.2748  19.1541         60
 3.57   0.0428    207.4825    548.8376 -64.15     1962.285     1.395     1.179      3.041     77.28354  19.8181         61
 4.31   0.0266    230.9999    562.1114 -29.05     3156.216     3.227     2.771      7.969      77.2748  19.3021         62
 3.50   0.1235    211.3650    684.4688  86.20     679.8839     1.579     1.065      3.141     77.30103  20.9689         63
 3.50   0.0515    213.0156   1305.8960  64.25     1630.218     1.264     1.115      2.837     77.28354  20.0194         64
 6.31   0.2189    205.8939    937.1061 -45.00     383.0729     1.210     0.289      3.254     77.20478  21.5918         65
 3.69   0.0439    224.5114   1225.8744 -77.81     1908.709     1.414     1.210      3.066     77.22229  19.8482         66
 6.59   0.2232    219.0222    740.5000 -56.89     375.8146     1.456     0.611      4.940     77.23104  21.6126         67
 0.00  99.0000    211.5957    608.7021 -48.75   -0.7314057     0.589     0.322      0.000      77.2748  99.0000         68
 3.50   0.0007    260.5684    997.2297 -57.06     119689.6     1.967     1.850      3.353     77.31852  15.3549         69
 3.90   0.1026    223.1899    774.7099 -28.21     817.6283     1.146     0.906      2.612      77.2748  20.7686         70
 3.50   0.0010    266.6972     67.3778 -75.78     83240.09     1.967     1.876      3.379     77.25729  15.7492         71
 4.10   0.0848    244.3300    112.7148  74.17     989.5361     2.024     1.468      4.022      77.2398  20.5614         72
 0.00  99.0000    224.4766     84.0624 -32.38    -258.9482     0.789     0.315      0.000     77.24855  99.0000         73
 4.53  99.0000    232.0000     20.0350   0.00    -234.9175     0.831     0.289      0.911     77.25729  99.0000         74
 4.57   0.0235    256.4006    612.6793 -30.02      3577.58     2.266     1.670      5.248     77.30978  19.1660         75
 5.77   0.1138    239.8354    838.3702 -20.32     737.8851     1.451     0.794      4.260     77.30103  20.8800         76
 6.28   0.2205    250.8140    107.8768 -74.34     379.4169     1.569     1.055      3.174     77.02948  21.6022         77
 6.44   0.5133    240.3460   1478.8618 -47.85      163.473     1.076     0.282      2.339     77.26604  22.5164         78
 6.23   0.1458    253.0185   1372.5364  88.54     572.7481     0.934     0.498      2.782     76.87136  21.1551         79
 4.67   0.3378    254.2936   1352.3809  21.45     247.0676     0.819     0.369      1.911     76.84498  22.0680         80
 3.50   0.0042    288.3638   1486.2595 -50.05     19811.26     1.730     1.592      3.177     77.30103  17.3077         81
 0.00  99.0000    261.3333     84.2923 -47.25    -76.74307     0.559     0.342      0.000     77.25729  99.0000         82
 5.66   0.1821    270.6717   1273.9197 -40.63     460.6621     1.404     1.013      3.903     77.24855  21.3915         83
 3.50   0.0191    282.7120   1522.1971 -53.12     4397.398     1.396     1.295      2.959      77.2748  18.9420         84
 3.50   0.0058    303.9742    201.5955 -67.73     14481.49     1.660     1.554      3.151     77.29229  17.6480         85
 5.43   0.0721    294.2861   1475.5723 -56.07      1157.92     1.236     0.945      3.745     76.84498  20.3908         86
 3.70   0.0991    302.6453    563.4780  78.24     847.0534     1.226     1.002      3.105     77.25729  20.7302         87
 3.50   0.0085    322.8607    697.1563 -65.04     9878.236     1.561     1.501      3.215     77.30103  18.0633         88
 6.97   0.4625    308.2586     85.3358  -9.79     181.3907     1.278     0.681      3.176     77.25729  22.4035         89
 7.68   1.0058    312.6170     85.1514 -79.80      83.4608     0.987     0.661      3.023     77.30103  23.2463         90
 3.50   0.0860    322.0946    641.3367 -62.75     975.7886     2.440     1.055      4.081     77.26604  20.5766         91
 4.66   0.0454    328.1743    595.2106  73.06     1850.602     1.457     1.437      4.030     77.28354  19.8817         92
 3.50   0.5483    313.9999    326.0000  90.00     153.1358     0.857     0.289      2.383     77.30978  22.5873         93
 0.00  99.0000    331.2695    182.9999   0.00    -111.1497     0.855     0.444     -3.426     77.32726  99.0000         94
 7.80   1.1503    318.3265    226.3265 -45.00     72.92284     0.571     0.337      2.288      77.2398  23.3928         95
 4.76   0.8539    332.9469     93.2881 -11.73     98.22174     1.125     0.860      2.114     77.23104  23.0695         96
 4.07   0.1971    330.2740   1545.6710 -32.70     425.4402     0.997     0.657      2.407     77.22229  21.4779         97
 0.00  99.0000    340.3112    179.6888  45.00    -118.6332     0.558     0.343      0.000     77.20478  99.0000         98
 4.01   0.1341    350.8346     54.4693  76.80     626.1921     1.181     1.089      2.681     77.30103  21.0582         99
 3.50   0.0084    368.9971    760.8607 -60.62     9988.803     1.549     1.479      3.094     77.34474  18.0512        100
 7.01  99.0000    348.7852     42.1725 -15.91    -193.1187     0.890     0.343      1.466     77.30103  99.0000        101
 3.50   0.0436    362.0011   1500.1412   8.08     1927.838     1.306     1.171      2.854     77.34474  19.8373        102
 3.50   0.0017    396.0186    231.2769 -59.08     48637.64     1.809     1.766      3.274       77.336  16.3326        103
 3.50   0.1439    361.2874   1033.8175 -47.29      579.929     0.934     0.778      2.185     76.84498  21.1416        104
 0.00  99.0000    360.0423    151.0000  90.00    -111.1264     0.873     0.289     -0.399     77.30978  99.0000        105
 6.26   0.3300    369.5384    210.7692  82.98     254.3551     1.089     0.403      2.622     77.29229  22.0364        106
 4.32   0.1796    374.3805   1083.7491 -45.06     467.4316     1.277     0.931      3.237     77.30978  21.3757        107
 6.15   1.5855    371.2109     71.1750  -9.51     52.64078     1.433     0.706      2.368     76.85377  23.7467        108
 6.63   0.0858    377.0762    754.1251  38.19     972.1524     1.702     0.884      5.863     76.80978  20.5807        109
 3.50   0.0121    397.8548   1460.9972 -66.60     6950.566     1.529     1.479      3.105     77.35348  18.4449        110
 7.51   0.0792    372.6167    752.9357  28.61     1060.166     0.945     0.202      2.477     77.30103  20.4866        111
 3.50   0.0107    399.0069    354.3420 -79.02     7821.644     1.576     1.453      3.040     77.34474  18.3168        112
 3.50  99.0000    376.6897     86.1697  25.53    -165.6243     1.431     0.435      0.924     77.26604  99.0000        113
 5.34   0.2860    380.7073    126.0802  -7.83     293.3637     1.049     0.436      2.695     77.24855  21.8815        114
 3.50   0.0508    394.4662   1088.6558 -38.71     1652.436     1.345     1.286      3.050     77.26604  20.0047        115
 3.50   0.3539    385.1066    218.2978 -86.25     236.2385     0.832     0.455      1.367     76.97681  22.1166        116
 5.17   0.7315    389.7467   1195.3679 -81.63     114.7872     1.180     0.455      3.049     77.31852  22.9003        117
 6.94   0.8924    390.3333    260.3925 -43.23     94.11542     0.601     0.315      2.335       77.336  23.1158        118
 6.05   0.1103    397.9496    626.5803  25.15     761.3036     1.467     0.519      3.626     77.30978  20.8461        119
 6.16   0.2939    407.3262    281.8120  86.11     285.8027     1.028     0.385      2.653       77.336  21.9098        120
 8.37   0.1382    404.5683    526.5000   0.00     606.9529     0.500     0.495      3.000     77.21354  21.0921        121
 0.00   2.7455    408.9999    699.4050  89.99     30.55932     0.771     0.491     -2.739     77.25729  24.3371        122
 3.50   0.0053    438.7710    251.9372 -58.75     15909.91     1.695     1.560      3.196     77.29229  17.5458        123
 3.50   0.0006    461.8542    807.3655 -53.73     137955.3     1.998     1.892      3.378     77.29229  15.2007        124
 4.52   0.1093    421.7829    158.7665  48.54       768.11     1.506     1.389      3.739     77.30103  20.8364        125
 8.33   0.0975    412.2601      1.3008  69.98     638.6749     0.906     0.359      4.279     57.33977  21.0368        126
 0.00   0.6528    412.6538    198.9613  28.69     128.5915     0.914     0.210      5.481     77.29229  22.7770        127
 6.85   0.2135    415.6755    558.2351  47.73     393.1158     1.077     0.348      3.152      77.2748  21.5637        128
 7.88   0.6319    415.3739   1561.3536 -45.60     132.8963     0.603     0.315      2.571     77.32726  22.7412        129
 6.06   0.2516    419.4582   1204.6603 -19.80     333.4695     1.038     0.707      2.964     77.25729  21.7424        130
 5.49   0.1457    427.7241   1179.3151  16.88     575.6938     1.365     0.886      3.861     77.23104  21.1495        131
 6.73   0.1774    420.6666    133.9999  28.16     473.2708     0.919     0.209      2.826     77.32726  21.3622        132
 3.50   0.0634    433.7999   1421.7810  -3.23     1323.933     1.400     1.147      2.854     77.29229  20.2453        133
 5.78   0.1509    431.7544    717.7675  83.83     553.3177     1.303     1.115      4.549     76.88895  21.1926        134
 5.67   0.0415    426.3399    433.8217  -0.65     2022.363     1.618     0.697      4.476     77.31852  19.7854        135
 7.70   0.5116    425.2681   1064.0602 -27.55      164.013     0.861     0.219      2.307     77.25729  22.5128        136
 3.53   0.0166    451.1560     21.1324 -40.41     5058.471     1.586     1.454      3.081      77.2748  18.7900        137
 5.33   0.1664    434.9251    151.0956  33.14       504.03     1.042     0.753      3.028      77.2398  21.2939        138
 3.50   0.1261    440.7094    305.4552 -67.81     665.5294     1.234     0.946      2.683     77.24855  20.9921        139
 6.55   0.6847    436.3333    378.0375 -27.60     122.5852     0.940     0.203      5.640     77.29229  22.8289        140
 4.61   0.0201    468.6138    850.4859  22.29     4181.032     6.918     1.705     10.581     77.29229  18.9968        141
 3.64   0.0154    458.6819     34.3852 -68.71     5456.547     1.504     1.362      3.022     77.30978  18.7077        142
 5.24   0.1088    446.1402    122.2485 -40.13     771.1058     1.535     0.986      3.567      77.2748  20.8322        143
 0.00  99.0000    444.3414     32.6586  45.00    -67.66822     0.584     0.329      0.000     77.25729  99.0000        144
 7.72   0.4166    446.3051   1504.6737  43.88     201.3582     0.562     0.341      2.780     77.24855  22.2901        145
 3.53   0.0486    464.6877    468.4340 -68.06     1727.875     1.453     1.345      2.969     77.28354  19.9562        146
 3.50   0.3469    453.9789    838.6877 -89.20     241.9881     0.829     0.463      0.937     77.29229  22.0905        147
 7.02   0.2619    453.8300   1533.0110   0.29     320.5997     0.711     0.376      2.463     77.31852  21.7851        148
 5.39   0.1404    461.9751   1096.1796 -25.46     597.7229     0.895     0.833      3.094     77.30103  21.1087        149
 4.28   0.0550    471.9928    254.1263 -68.26     1527.601     1.378     1.145      3.176     77.32726  20.0900        150
 4.00   0.0379    472.9767    734.7629 -49.28     2212.262     1.302     1.161      3.007     77.30103  19.6879        151
 3.50   0.0291    478.8103    922.8269 -42.14     2884.281     1.387     1.317      2.829     77.30103  19.3999        152
 6.40   0.1996    462.5494    724.5518 -15.89     420.7829     1.098     0.412      3.252     77.31852  21.4899        153
