#   1 NUMBER                 Running object number                                     
#   2 EXT_NUMBER             FITS extension number                                     
#   3 FLUX_BEST              Best of FLUX_AUTO and FLUX_ISOCOR                          [count]
#   4 FLUXERR_BEST           RMS error for BEST flux                                    [count]
#   5 MAG_BEST               Best of MAG_AUTO and MAG_ISOCOR                            [mag]
#   6 MAGERR_BEST            RMS error for MAG_BEST                                     [mag]
#   7 X_IMAGE                Object position along x                                    [pixel]
#   8 Y_IMAGE                Object position along y                                    [pixel]
#   9 A_IMAGE                Profile RMS along major axis                               [pixel]
#  10 B_IMAGE                Profile RMS along minor axis                               [pixel]
#  11 THETA_IMAGE            Position angle (CCW/x)                                     [deg]
         1   1     40265.38     158.6233  16.5425   0.0043     63.7997     53.5252     4.685     4.247  -3.90
         2   1     5977.595     99.64371  18.6135   0.0181    985.1923     17.1269     4.346     1.817 -87.68
         3   1     3652.279      49.3555  19.1484   0.0147     91.5192     18.1446     1.481     1.375 -68.12
         4   1     10146.07     55.52927  18.0390   0.0059   1445.8591     15.3536     1.634     1.584 -71.14
         5   1     404.4124     57.43993  21.5377   0.1542    841.9979     13.6931     1.135     0.458 -72.76
         6   1     464.9615     64.03948  21.3862   0.1496    145.5426      4.0879     1.217     0.921  70.74
         7   1     587293.1     188.3089  13.6326   0.0003   1107.5367    182.5938     5.950     5.006 -37.44
         8   1     203.7904     35.11979  22.2818   0.1872   1183.7943     10.5726     0.958     0.485  -6.90
         9   1     47551.46      66.8661  16.3619   0.0015   1078.6909     60.3875     2.045     1.844  79.25
        10   1     450.7367     56.62897  21.4200   0.1364    385.0799     17.6537     1.203     0.929 -14.05
        11   1     910.3619     59.80685  20.6567   0.0713    367.3887     24.8541     1.250     1.183 -86.69
        12   1     404.4188     45.11219  21.5377   0.1211    383.1667     24.3010     1.084     0.951 -40.04
        13   1      105.262     30.41463  22.9991   0.3138    699.3123     24.3144     0.560     0.342 -45.11
        14   1     488.0728     68.23551  21.3336   0.1518   1110.7292     35.9995     1.298     0.963 -83.70
        15   1      120.517     33.77714  22.8522   0.3044    703.2515     26.7504     0.856     0.351 -18.89
        16   1     80.44238     28.85386  23.2911   0.3895    531.3240     26.6736     0.570     0.337  45.12
        17   1     252.4594     39.29971  22.0493   0.1691   1109.5005     32.4863     1.065     0.802 -23.32
        18   1     297.4628     48.08976  21.8712   0.1756    327.2390     33.6167     1.084     0.801 -61.74
        19   1     389.3678     50.58957  21.5789   0.1411   1170.9567     39.6455     1.099     0.966 -85.60
        20   1     264.9186     50.89342  21.9970   0.2086   1521.8109     38.0633     0.915     0.741  -9.34
        21   1     338.4695     58.76665  21.7310   0.1886    440.4556     44.6940     1.104     0.815 -55.17
        22   1      45057.5     63.31311  16.4204   0.0015    537.8243     80.4046     1.911     1.773 -86.01
        23   1      300.666     52.67969  21.8596   0.1903    915.6876     42.8763     0.989     0.752   9.79
        24   1     214.3445     47.44423  22.2270   0.2404   1435.1534     51.1983     0.751     0.565  46.45
        25   1     226.6852     45.45267  22.1662   0.2178    265.1693     51.2205     1.187     0.344 -11.77
        26   1     1554.847     44.76913  20.0756   0.0313    128.3723     75.3237     1.370     1.250 -79.51
        27   1     273.0931     47.11815  21.9640   0.1874   1147.4990     65.4919     0.503     0.497 -44.71
        28   1     512.3506     56.62897  21.2809   0.1200    421.9448     82.5204     1.433     1.080 -60.87
        29   1     139.2156     36.83395  22.6956   0.2873   1322.9462     72.5246     0.791     0.315 -32.29
        30   1     1002.882     80.08546  20.5517   0.0867    377.1675     90.8113     1.789     1.450 -11.16
        31   1     67880.02     66.40335  15.9754   0.0011    789.3429    122.2698     1.978     1.874 -84.85
        32   1     46701.84     221.2826  16.3814   0.0051    403.5172    235.4554     6.084     5.378 -57.68
        33   1     2405.411     50.28389  19.6018   0.0227     56.3872     96.7895     1.500     1.435 -57.13
        34   1     310.9749     52.67969  21.8230   0.1840    496.0466     92.0598     0.813     0.749  41.74
        35   1     501.4523     52.38621  21.3042   0.1135    453.0963     98.5079     1.273     0.993 -13.59
        36   1     283.4167     53.26181  21.9237   0.2041   1076.6273     96.0782     0.958     0.687  21.71
        37   1     202.0819      41.5543  22.2910   0.2233    518.0137    103.0046     0.901     0.528 -42.61
        38   1     110.4091      31.4121  22.9473   0.3090   1099.5221    107.5073     0.512     0.487  45.50
        39   1     203.6493     41.18161  22.2826   0.2196     68.1370    117.3928     1.221     0.695 -13.99
        40   1     251.2405     48.72674  22.0546   0.2106    415.9847    115.2657     0.810     0.494 -55.24
        41   1     216.8356     50.28389  22.2145   0.2518    990.6464    117.2545     0.905     0.753  -7.63
        42   1     156.1562     35.55608  22.5709   0.2473    153.5004    118.0163     0.784     0.499 -87.61
        43   1     294142.8     74.50034  14.3834   0.0003    318.2505    193.9391     2.285     2.063 -63.89
        44   1       321.74     53.26181  21.7860   0.1798    494.9810    126.5118     0.807     0.500  -0.47
        45   1     189.5822      41.5543  22.3603   0.2380    418.1985    131.3040     0.847     0.599 -28.57
        46   1     38376.02     61.83478  16.5946   0.0017   1468.4854    163.0547     1.817     1.736 -77.89
        47   1     296.3191     48.40929  21.8754   0.1774    354.2550    147.4694     0.993     0.939 -83.24
        48   1     152.3268     33.31756  22.5978   0.2375    886.6586    142.6608     0.583     0.330 -44.91
        49   1     8558.202     56.62897  18.2238   0.0072    877.4740    170.6976     1.685     1.611 -82.76
        50   1     164.5687     40.04273  22.5139   0.2642   1280.4971    152.4654     0.502     0.496 -39.37
        51   1      117.637     35.55608  22.8784   0.3282     82.7033    156.3305     0.560     0.342  46.84
        52   1       755.01     57.70771  20.8599   0.0830   1445.8843    165.8473     1.240     1.109 -42.75
        53   1     1210.079     63.55616  20.3477   0.0570    325.7209    171.8127     1.329     1.208 -60.90
        54   1     579.9175     50.28389  21.1464   0.0942    104.6249    167.1095     1.177     1.086 -16.53
        55   1      308.395     46.12608  21.8320   0.1624   1369.2546    170.3085     0.933     0.849  11.39
        56   1     201.0074     49.97635  22.2968   0.2700    649.7439    169.5062     1.395     0.489  -4.65
        57   1     401.8767      61.0822  21.5445   0.1651   1355.0319    187.0440     1.219     0.995  10.77
        58   1     299.0172     55.25093  21.8655   0.2007    575.6987    180.5658     1.000     0.479  -8.34
        59   1      925.281     48.08976  20.6391   0.0564   1350.8151    193.3761     1.280     1.103  77.63
        60   1     5071.588     127.7173  18.7919   0.0273    828.1095    211.1837     4.024     2.098  -6.37
        61   1     1712.911     52.51613  19.9704   0.0333    415.5566    229.2693     1.791     1.563 -12.72
        62   1     228.6571     45.79061  22.1568   0.2175    268.1735    195.2809     1.080     0.517  54.63
        63   1     154.4982     34.67802  22.5825   0.2438   1028.2732    192.6325     0.563     0.337  49.79
        64   1     1787.908     47.76809  19.9239   0.0290    549.4011    207.1272     1.443     1.315 -85.19
        65   1     4810.656     164.6328  18.8493   0.0372    562.4095    230.4931     3.467     3.264 -38.65
        66   1     985.9495     63.06913  20.5701   0.0695    350.0247    209.0113     1.813     1.239  44.45
        67   1     354.3955     47.76809  21.6811   0.1464    251.0272    203.8939     0.916     0.839  -0.79
        68   1     1671.563     46.12608  19.9970   0.0300   1306.2999    212.8764     1.376     1.279 -66.83
        69   1     547.5409     63.06913  21.2087   0.1251    684.8726    211.2034     1.239     1.146 -50.29
        70   1     146.8385     34.23054  22.6377   0.2532    936.9929    205.6722     0.908     0.212  28.33
        71   1     104101.8     68.00919  15.5111   0.0007    997.5744    260.3650     2.022     1.934 -89.34
        72   1     2090.888     47.76809  19.7540   0.0248   1226.3085    224.7346     1.413     1.348  86.64
        73   1     689.1849     74.91308  20.9589   0.1180    346.1969    223.0306     1.492     1.352  57.86
        74   1     145.5715     32.85156  22.6471   0.2451   1225.3633    210.2872     0.568     0.336 -41.37
        75   1     772.1014     52.09107  20.8356   0.0733    775.2977    222.8820     1.280     1.148 -78.87
        76   1     288.2296     50.58957  21.9054   0.1906    741.8887    217.8561     0.846     0.652 -45.39
        77   1      87100.3     67.55428  15.7047   0.0008     67.8013    266.1625     2.007     1.911 -78.87
        78   1      293.449     51.79425  21.8860   0.1917    548.0768    230.7153     1.026     0.744 -73.40
        79   1     1433.013     83.29391  20.1642   0.0631    113.0351    244.2989     1.867     1.582 -89.52
        80   1     90.59973     28.85386  23.1620   0.3459    325.3205    228.3499     0.579     0.332 -46.24
        81   1     615.4634     58.23959  21.0818   0.1028    838.7070    239.7767     1.390     1.053 -46.60
        82   1     3934.325     98.55468  19.0676   0.0272    613.0906    255.8108     2.447     2.040 -16.68
        83   1     774.4404     82.36322  20.8323   0.1155   1372.7426    252.4413     1.567     1.194  66.47
        84   1     359723.1     74.70699  14.1649   0.0002    439.6983    312.5552     2.221     2.106 -66.16
        85   1     541.2048      61.0822  21.2214   0.1226    107.6803    250.5133     1.169     0.968  -1.66
        86   1     252.7374     35.11979  22.0481   0.1509   1352.6882    254.3401     0.991     0.851 -48.20
        87   1     20406.22     59.80685  17.2804   0.0032   1486.6270    288.3568     1.750     1.711  88.49
        88   1       137.24     29.38333  22.7111   0.2325   1017.6207    261.7161     0.573     0.332 -40.76
        89   1     4465.994     51.19546  18.9300   0.0124   1522.5603    282.6521     1.536     1.456 -45.72
        90   1     171.8296     35.11979  22.4670   0.2220    124.3059    265.6608     0.568     0.338  46.63
        91   1     403.0232     56.35606  21.5415   0.1519   1274.2327    271.4204     1.178     0.848  29.10
        92   1       1795.1     61.83478  19.9196   0.0374    515.3969    290.2191     1.844     1.582  85.02
        93   1     14835.02     57.97426  17.6266   0.0042    202.0118    303.3994     1.763     1.645  82.60
        94   1     59668.66     65.93736  16.1154   0.0012    905.5974    319.2488     1.946     1.866  80.63
        95   1     1178.461     87.62371  20.3765   0.0807   1414.2720    297.8040     2.633     1.331 -43.77
        96   1     306532.5      73.6679  14.3386   0.0003   1346.0428    352.0961     2.170     2.083 -62.22
        97   1     1859.793     47.11815  19.8811   0.0275   1327.7196    294.7164     1.404     1.318 -86.02
        98   1     1051.143     62.33145  20.5006   0.0644   1475.7775    294.3491     1.406     1.221 -26.98
        99   1     317590.4     74.50034  14.3001   0.0003    890.9661    351.8862     2.210     2.098 -48.11
       100   1      745.819     53.26181  20.8732   0.0776    563.8398    302.8273     1.489     1.289  35.57
       101   1     226.2288     52.09107  22.1684   0.2501    249.2462    292.9918     0.734     0.686 -84.22
       102   1     207.5863     45.79061  22.2618   0.2396    886.8599    296.7082     1.060     0.510 -66.54
       103   1     608.4763     60.32023  21.0942   0.1077     85.4247    308.9450     1.830     0.952  81.50
       104   1     9821.449     55.80622  18.0743   0.0062    697.4584    322.5602     1.679     1.574 -78.02
       105   1     825.8406     65.70312  20.7625   0.0864    641.5955    322.5329     2.010     1.387 -74.02
       106   1     2092.576     84.21431  19.7531   0.0437    595.6755    328.0034     1.719     1.644  -7.63
       107   1     325.7097     64.27978  21.7727   0.2143    956.5848    324.7242     1.433     0.635  54.09
       108   1     122.9962      31.4121  22.8301   0.2774   1017.3156    323.7076     0.551     0.345  43.59
       109   1     6582.254     60.06409  18.5088   0.0099    867.3059    346.8928     1.647     1.638 -40.48
       110   1     314.1427     40.80552  21.8120   0.1411   1546.3762    330.2252     0.998     0.891 -51.83
       111   1     354.0173     37.25017  21.6822   0.1143     93.4353    332.4190     1.047     0.837  42.24
       112   1     322.0078     31.89914  21.7851   0.1076   1440.7502    335.8508     1.151     0.758  24.85
       113   1     5328.272     60.57528  18.7383   0.0123    432.0551    356.1431     1.888     1.652 -89.14
       114   1       792.63     38.87049  20.8071   0.0533     55.0058    350.3318     1.201     1.105  86.07
       115   1     185.5558     39.26513  22.3836   0.2298    806.0276    339.7777     0.693     0.416   1.14
       116   1     10154.03     56.35606  18.0382   0.0060    761.3643    368.6249     1.702     1.579  82.59
       117   1     329.9774     52.09107  21.7586   0.1714    920.3484    350.2334     1.033     0.933 -54.39
       118   1     1794.202     50.89342  19.9201   0.0308   1500.6205    361.9805     1.407     1.364  73.48
       119   1     3654.215      49.3555  19.1478   0.0147    443.0886    367.8328     1.473     1.415  66.09
       120   1      311.286     35.55608  21.8219   0.1240    533.1404    360.0383     1.212     0.893  53.71
       121   1      50565.8     65.70312  16.2951   0.0014    231.6743    395.4884     1.949     1.840  77.54
       122   1     424.8612     35.55608  21.4842   0.0909   1034.1250    361.4562     1.190     0.929  21.17
       123   1     102.1082     29.90343  23.0321   0.3180   1399.0023    357.0000     0.842     0.289   0.00
       124   1     354.1499     56.08181  21.6818   0.1720   1415.6382    364.3918     1.026     0.877 -43.63
       125   1     995.3855      91.9173  20.5598   0.1003    753.5044    375.4305     2.366     1.003  47.83
       126   1     729.1144     56.35606  20.8978   0.0839    992.6573    373.2975     1.311     1.220   6.59
       127   1      185.067     38.06895  22.3865   0.2234    210.6798    369.6660     0.990     0.578 -69.78
       128   1     312.5117     45.45267  21.8176   0.1580     71.8415    370.6648     1.017     0.737  76.54
       129   1     265.9463      41.5543  21.9928   0.1697   1083.9834    374.4050     1.044     0.771 -89.05
       130   1     7329.117     54.68999  18.3922   0.0081   1461.4524    397.8773     1.683     1.551 -73.83
       131   1     150.0951     33.77714  22.6139   0.2444    141.2270    375.0100     0.680     0.419 -89.55
       132   1     8088.249     56.62897  18.2851   0.0076    354.8107    398.5048     1.686     1.552  89.99
       133   1     170.0165     40.42592  22.4786   0.2582     87.8118    376.0063     0.954     0.458 -52.47
       134   1     311.8577     46.45912  21.8199   0.1618    125.9786    380.5817     0.942     0.867 -78.94
       135   1      312.658     45.45267  21.8171   0.1579     67.5940    383.4047     1.166     0.773  51.58
       136   1     113.8815     24.83344  22.9136   0.2368      1.0000    380.9717     0.847     0.289  90.00
       137   1     1610.813     46.45912  20.0372   0.0313   1089.0247    394.2598     1.420     1.253  67.79
       138   1     45864.02     62.57831  16.4011   0.0015    433.5898    420.0205     1.848     1.767  79.89
       139   1     22134.43     60.82927  17.1921   0.0030    837.6166    416.0988     1.792     1.690 -86.61
       140   1     737.9701     78.33368  20.8847   0.1153    627.2267    396.8589     1.608     1.284 -12.08
       141   1      165.439     33.77714  22.5082   0.2217   1195.7992    389.8943     0.822     0.669 -50.03
       142   1     187.3942     43.01279  22.3729   0.2493    261.4804    390.0220     0.807     0.309 -58.26
       143   1     386.4556     60.82927  21.5870   0.1709    978.6519    396.7586     1.383     0.713 -25.08
       144   1     96.41772     28.85386  23.0944   0.3250     97.3347    391.6644     0.579     0.332  45.04
       145   1     506.3088     70.45875  21.2937   0.1511    526.9224    404.1374     1.603     1.010  49.64
       146   1     352.7761     47.11815  21.6860   0.1451      1.4600    411.6898     1.550     0.492  86.90
       147   1     3960.707     52.09107  19.0603   0.0143    926.6381    424.7323     1.552     1.505 -83.30
       148   1      1302.42     99.02287  20.2679   0.0826    159.7319    421.6084     1.934     1.613  45.81
       149   1      221.661     45.79061  22.1906   0.2243    282.1894    407.8483     0.805     0.666  43.70
       150   1     143787.6     70.23959  15.1605   0.0005    807.8332    461.6982     2.072     2.019 -72.06
       151   1     16493.55     60.82927  17.5115   0.0040    252.2797    438.2123     1.794     1.732  71.34
       152   1     280.4324     56.35606  21.9352   0.2182    561.2371    416.1235     1.063     0.655  81.87
       153   1      152.005     38.87049  22.6001   0.2777    189.2176    412.3987     0.761     0.447  18.91
       154   1     410.5093     64.51918  21.5215   0.1707   1204.7341    419.3941     1.037     0.771 -18.47
       155   1     209.5378     40.04273  22.2516   0.2075   1562.4846    415.4966     0.506     0.494 -45.54
       156   1     748.8981     80.08546  20.8687   0.1161    138.2387    422.0081     1.617     0.766  -1.36
       157   1     1209.886     86.20461  20.3479   0.0774    122.5160    445.3532     1.522     1.288 -51.84
       158   1     609.1497     72.40131  21.0930   0.1291   1180.0702    427.3903     1.461     1.192  59.62
       159   1     287.0488     48.72674  21.9099   0.1843    774.3480    419.7381     0.879     0.745  -8.83
       160   1     196.5784     40.80552  22.3209   0.2254   1580.9352    420.9765     0.780     0.777 -64.56
       161   1     248.4485      41.5543  22.0667   0.1816   1064.2546    424.7009     0.920     0.761 -84.34
       162   1      1216.25     48.72674  20.3422   0.0435   1422.1829    433.7247     1.403     1.231 -15.53
       163   1      534.833     43.72379  21.2342   0.0888    151.1989    434.2644     1.227     1.041 -81.63
       164   1     233.0707     33.31756  22.1361   0.1552   1009.4892    426.8933     0.884     0.670 -40.48
       165   1      246.426     42.65284  22.0756   0.1880    300.2596    427.1862     0.765     0.551  41.78
       166   1     94.31982     26.04554  23.1183   0.2999   1086.0087    424.7631     0.692     0.425   0.40
       167   1     769.1937     84.39719  20.8397   0.1192    718.6637    430.6999     1.415     0.741 -23.16
       168   1     8737.614     191.5559  18.2013   0.0238    850.8901    468.3481     7.879     2.083  23.15
       169   1     4954.992     52.38621  18.8172   0.0115     21.6386    450.5656     1.584     1.465 -76.96
       170   1      696.051     53.83762  20.9482   0.0840    306.0426    440.3376     1.239     1.111 -82.44
       171   1     207.8093     45.79061  22.2606   0.2393    354.1263    433.8568     0.764     0.566 -40.12
       172   1     936.4978     80.85184  20.6260   0.0938    883.8214    448.3131     2.074     1.499   9.73
