#   1 KRON_RADIUS            Kron apertures in units of A or B                         
#   2 Y_IMAGE                Object position along y                                    [pixel]
#   3 MAG_BEST               Best of MAG_AUTO and MAG_ISOCOR                            [mag]
#   4 FLUX_BEST              Best of FLUX_AUTO and FLUX_ISOCOR                          [count]
#   5 X_IMAGE                Object position along x                                    [pixel]
#   6 THETA_IMAGE            Position angle (CCW/x)                                     [deg]
#   7 A_IMAGE                Profile RMS along major axis                               [pixel]
#   8 B_IMAGE                Profile RMS along minor axis                               [pixel]
#   9 MAGERR_BEST            RMS error for MAG_BEST                                     [mag]
#  10 NUMBER                 Running object number                                     
#  11 FLUXERR_BEST           RMS error for BEST flux                                    [count]
 3.87     54.0659  16.5598     39454.28     63.4899  10.31     5.081     4.648   0.0053          1     193.5732
 3.50     17.6085  18.7875     5069.803    984.8859 -88.11     4.180     1.842   0.0215          2     100.5567
 3.50     18.7843  19.2412     3338.257     91.0677 -71.47     1.673     1.595   0.0192          3     59.01929
 3.50     15.4372  18.1803     8869.445   1445.5699 -58.56     1.765     1.663   0.0076          4     62.36261
 8.71      7.7679  22.7793     128.3121   1469.4524 -68.75     0.745     0.449   0.4347          5     51.35972
 5.07      4.5796  21.8128     312.5226    145.2529  45.23     1.230     0.964   0.1906          6     54.86184
 7.04     10.4945  22.6012     151.1946   1183.4982  44.89     0.503     0.497   0.2436          7     33.90899
 3.50     60.5844  16.4969     41805.55   1078.2451  78.79     2.095     1.992   0.0019          8     73.32869
 7.80     14.3363  23.3860     73.38281    839.6812  45.80     0.572     0.336   0.5305          9     35.84818
 3.74     25.5083  20.9684     680.2291    367.0248 -44.59     1.386     1.224   0.0788         10     49.34483
 4.02     17.9750  22.1050     238.7822    384.0877  -6.22     1.065     0.750   0.1694         11     37.23637
 7.96     24.5876  22.5050     165.1963    383.1619  87.84     1.000     0.715   0.4540         12     69.05338
 7.77     35.5276  21.2793     510.8204   1110.5074  83.69     1.018     0.640   0.1377         13     64.75692
 6.92     34.3290  21.8071     314.1753    326.4467 -55.25     1.064     0.824   0.2318         14     67.06581
 5.72     38.8936  22.9253     112.1702   1521.2977  57.82     1.154     0.680   0.5036         15     52.01401
 3.50     40.2370  23.7247     53.71973   1226.1660 -45.15     0.973     0.347   0.4073         16     20.14494
 5.89     39.8462  22.1544     228.1609   1170.4801  -0.96     0.941     0.732   0.2413         17     50.69699
 5.61     45.8528  22.6618     142.9779    440.1219 -39.18     1.403     1.002   0.5189         18     68.31482
 3.50     43.2798  22.2531     208.3247    915.3459 -44.82     1.174     0.700   0.1660         19     31.85195
 3.50     80.9599  16.5434     40052.38    537.4124 -67.89     2.020     1.918   0.0019         20     71.22312
 6.55     51.1657  23.2991      79.4967    265.9853  36.65     0.939     0.465   0.6205         21     45.41928
 6.43     51.0299  22.6685     142.0997   1435.2108 -33.32     0.788     0.497   0.3079         22     40.28988
 6.81     49.3377  24.3430       30.396   1233.6754  45.58     0.575     0.334   1.0796         23     30.21741
 3.50     75.9613  20.3293     1225.364    127.6706  65.45     1.364     1.260   0.0412         24     46.52275
 5.74     82.8388  21.2075     545.7764    421.4473 -51.35     1.212     0.808   0.1169         25     58.73209
 4.96     91.5984  20.6206     937.0507    376.7576 -72.96     1.865     1.539   0.1002         26     86.45129
 3.50    122.5939  16.1022     60135.54    788.9185 -58.39     2.100     1.956   0.0013         27     72.86604
 3.56     97.3459  19.8963     1825.991     56.0111  -6.65     1.519     1.385   0.0319         28     53.61481
 6.17     92.9185  21.5473     399.0834    495.8493  75.14     1.341     0.684   0.1645         29     60.43482
 6.08     98.7694  20.5291     1019.429    452.5779 -24.86     1.703     0.981   0.0865         30     81.20685
 8.03    114.3488  22.7119     136.5293    270.3333 -45.61     0.584     0.329   0.2998         31     37.68773
 7.06    117.8673  22.2163     215.5253     66.8318  46.85     0.748     0.562   0.2381         32     47.24407
 6.06    118.7044  25.6046     9.509888    990.6282 -41.71     0.576     0.332   3.1849         33     27.88941
 8.26    118.5058  23.0443     100.5284    154.4909  45.33     0.502     0.498   0.4530         34     41.93504
 3.50    163.1394  16.7408     33395.44   1468.1359 -60.49     1.999     1.918   0.0023         35     70.02601
 5.15    132.4923  21.8007      316.017    418.0414   0.53     0.805     0.500   0.1216         36     35.37335
 3.50    171.1355  18.3665     7471.207    877.1223 -68.19     1.765     1.708   0.0091         37     62.36261
 6.86    152.5081  22.8610     119.0157   1279.9960  -1.46     0.803     0.500   0.3971         38     43.51804
 3.58    165.8672  21.1553     572.6458   1445.5352  -0.27     1.320     1.134   0.0854         39     45.04546
 4.17    167.5935  21.5307       405.23    104.3066 -28.86     1.173     1.010   0.1227         40     45.79006
 5.08    170.4301  21.4381     441.3285   1368.2188 -47.27     1.080     0.717   0.1136         41     46.15786
 5.71    169.4399  22.8274     122.7583    651.5150 -35.83     0.503     0.493   0.2623         42     29.65255
 4.38    181.2359  21.4552     434.4191    574.8821  23.27     1.275     0.773   0.1126         43     45.04546
 4.34    193.3881  20.7075     864.9371   1350.3932 -35.34     1.357     1.131   0.0697         44     55.47484
 8.45    186.9875  21.1733     563.2096   1354.0367 -74.12     0.796     0.783   0.1317         45     68.31482
 3.65    211.5628  18.9723     4276.353    827.4517  -6.95     3.903     1.922   0.0262         46     103.0481
 3.50    207.5028  20.1734     1414.604    548.9205 -81.19     1.547     1.367   0.0394         47     51.35972
 3.50    211.4505  21.3875     462.3823    684.4575 -82.33     1.680     1.042   0.1151         48     49.00095
 3.50    212.9739  20.1504     1444.935   1305.9010  53.86     1.403     1.346   0.0363         49     48.30587
 4.26    231.0617  19.1868     3509.669    562.2328  -9.15     3.351     2.841   0.0418         50     135.1364
 0.00    204.4279  99.0000    -71.79578   1498.4841 -36.26     0.505     0.489  99.0000         51     20.14494
 8.15    205.6816  24.3872      29.1825    937.0054 -28.40     0.896     0.214   1.4025         52     37.68773
 3.61    224.5214  20.0045     1652.688   1225.8654 -53.91     1.549     1.417   0.0363         53     55.16919
 3.50    260.5747  15.4144     113303.9    997.2193 -61.30     2.158     2.026   0.0007         54     74.47273
 3.50    266.7132  15.8406     76516.71     67.3777 -78.85     2.116     1.998   0.0010         55     73.55892
 3.50    223.2263  21.4092      453.251    774.7523 -19.32     1.202     1.068   0.0985         56     41.12069
 7.24    219.2476  22.2388     211.0986    740.7269 -18.84     0.845     0.353   0.2094         57     40.70741
 4.29    244.2685  20.2850     1276.437    112.8207  77.16     2.123     1.544   0.0677         58     79.52362
 4.43    256.2211  19.1798     3532.474    612.7919 -37.89     2.500     1.801   0.0298         59     96.78661
 5.85    239.8068  21.2138     542.5797    838.5142 -15.30     1.259     0.961   0.1317         60      65.7931
 4.86    240.0475  24.5166     25.90283   1478.8186 -53.94     0.940     0.464   1.3792         61     32.89655
 6.94    251.4614  21.4738     427.0541    107.4959 -45.23     1.084     0.836   0.1737         62     68.31482
 6.35    252.5684  19.6432     2305.297   1372.6412 -34.52     1.181     0.845   0.0327         63     69.34478
 3.50    288.3401  17.4585     17242.76   1486.2775 -54.62     1.867     1.775   0.0041         64      65.7931
 4.01    254.0000  23.1473     91.43188   1352.5071   0.00     1.051     0.289   0.2763         65     23.26137
 3.50    282.7326  19.2187       3408.3   1522.1934 -43.51     1.560     1.487   0.0177         66     55.47484
 6.90    271.2608  21.8063     314.3868   1273.5475 -11.09     1.161     0.926   0.2541         67     73.55892
 3.50    303.9948  17.7705     12935.74    201.5974 -73.98     1.829     1.713   0.0054         68     64.49528
 6.05    294.2973  21.0586     625.9745   1475.4902 -66.12     1.169     0.976   0.1159         69     66.81321
 3.50    302.8704  21.0525     629.4774    563.5295  64.72     1.317     1.259   0.0784         70     45.41928
 3.50    322.8517  18.2480     8332.938    697.1325 -67.45     1.711     1.657   0.0078         71     60.15438
 6.40    309.7060  21.2541     522.8245     85.4069 -81.45     1.983     0.885   0.1828         72     88.00211
 4.29    322.2261  20.9711     678.5427    641.0490 -74.76     2.205     1.229   0.1166         73     72.86604
 4.27    328.1181  20.0543     1578.577    595.2687 -49.81     1.622     1.556   0.0475         74     69.05338
 5.36    317.8036  22.4256      177.736    226.3809 -71.76     0.752     0.447   0.1914         75     31.31658
 5.35    332.8581  21.9008     288.1873     93.4377  -7.83     1.068     0.836   0.1997         76      52.9803
 4.19    330.3325  22.4364     175.9746   1545.6162  -6.15     0.994     0.631   0.2062         77      33.4066
 3.50    350.8575  20.7704     816.2712     54.4747 -39.25     1.290     1.224   0.0594         78      44.6685
 5.14    348.6108  22.6272     147.6174     42.2829 -59.05     0.983     0.545   0.2902         79     39.44158
 3.50    368.9763  18.2064     8658.296    760.8814 -55.04     1.738     1.635   0.0075         80     59.87262
 3.50    362.0320  20.1678     1421.871   1500.1699  10.20     1.429     1.398   0.0385         81     50.36235
 3.50    396.0084  16.4468     43780.61    231.2756 -59.51     2.003     1.932   0.0017         82     70.02601
 3.50    361.5096  22.6672     142.2662   1033.6727 -46.62     1.047     0.903   0.2626         83     34.40403
 3.55    374.0851  22.4970     166.4227   1083.9071 -43.95     1.458     0.919   0.2763         84     42.33634
 6.13    369.9420  22.4690      170.767    210.5096  87.58     0.786     0.499   0.2508         85     39.44158
 6.59    371.1455  22.1417     230.8502     71.4292 -16.36     1.204     0.716   0.2984         86     63.43791
 6.30    376.9420  21.2748     512.9696    753.8722  42.08     1.653     0.852   0.1633         87     77.14925
 3.50    397.8753  18.6436     5788.675   1461.0035 -57.52     1.678     1.607   0.0110         88     58.73209
 5.17    376.6144  23.1412     91.94714     86.3840  23.01     1.364     0.457   0.4953         89     41.93504
 3.50    398.9595  18.4815     6720.285    354.4040 -56.85     1.757     1.640   0.0100         90     61.81795
 5.97    380.9103  21.5825     386.3693    125.6369 -22.70     0.902     0.682   0.1368         91     48.65465
 3.50    394.4868  20.2656     1299.437   1088.6790 -16.48     1.485     1.357   0.0429         92     51.35972
 6.62    389.7516  23.5884     60.90442   1195.2408 -86.38     0.902     0.749   1.0054         93     56.38185
 6.59    390.2306  22.8141      124.271    260.4030  71.18     0.744     0.452   0.3371         94     38.57462
 5.92    397.9349  20.9893     667.2653    626.5078  15.77     1.528     0.795   0.1100         95     67.56818
 7.14    415.6719  20.7761     812.0381      2.5615  28.95     1.141     0.754   0.0742         96     55.47484
 5.89    407.6978  21.9810     267.6755    281.6329 -82.40     1.007     0.467   0.1734         97     42.73387
 7.73    404.5130  21.6793     353.4189    526.8869  -2.02     0.784     0.499   0.1537         98     50.02547
 3.50    461.8477  15.2977     126161.2    807.3699 -55.93     2.140     2.040   0.0007         99     75.59946
 7.26    413.7131  22.3559     189.5129   1562.2982 -60.78     1.155     0.451   0.3090        100     53.92928
 3.50    438.7642  17.6752      14122.2    251.9271 -54.88     1.813     1.728   0.0049        101     63.96878
 4.91    421.8596  20.5282     1020.234    158.7295  50.88     1.660     1.444   0.0833        102     78.23744
 5.46    412.6987  23.3526      75.6792    199.3263  43.64     0.560     0.342   0.3638        103     25.34849
 6.30    419.4074  22.2415     210.5781   1203.2559   2.22     1.263     0.791   0.3353        104     65.01752
 9.11    415.3150  22.6408     145.7699    558.6299  42.87     0.584     0.328   0.3002        105     40.28988
 3.50    433.6354  20.5489     1001.041   1421.9039 -17.73     1.429     1.338   0.0543        106     50.02547
 6.72    427.7105  21.7562     329.2471   1179.3110  20.69     1.301     0.989   0.2581        107     78.23744
 5.64    420.6244  23.0331     101.5724   1579.7715  17.88     0.757     0.446   0.3626        108     33.90899
 6.59    424.9908  22.8889     115.9955   1063.9623 -82.15     0.609     0.607   0.3772        109     40.28988
 6.86    431.8513  20.7974     796.2411    717.7710 -64.53     0.930     0.895   0.0887        110     65.01752
 5.00    434.9497  21.2132     542.8961    151.0015  25.47     1.154     0.980   0.1085        111     54.24191
 8.11    427.1310  21.8873     291.7838    432.4409  -1.10     2.518     0.334   0.1362        112     36.60611
 7.74    427.6147  22.5445     159.3007    299.6916 -47.83     0.587     0.325   0.2379        113     34.89206
 4.33    468.5287  18.4715     6782.773    850.1567  22.24     7.405     1.888   0.0267        114     166.5261
 3.51    451.1122  18.9561     4340.688     21.1382 -39.37     1.703     1.572   0.0148        115      59.3051
 5.35    446.1109  20.8527     756.6884    122.1262 -32.70     1.653     1.204   0.1126        116     78.45327
 3.50    440.8153  21.5668      391.983    305.5591 -50.73     1.189     1.082   0.1139        117     41.12069
 7.22    434.6680  23.7869     50.72778    353.3014  46.60     0.562     0.341   0.6819        118     31.85195
 3.50    458.6750  18.8607     4739.343     34.3958 -60.50     1.679     1.537   0.0133        119     58.15343
 5.39    444.1707  22.5048     165.2222    654.5854 -70.40     0.757     0.448   0.2162        120     32.89655
 7.52    444.6976  22.6814     140.4207    173.3044  44.88     0.551     0.345   0.2699        121     34.89206
 3.51    464.5992  20.0469     1589.376    468.4731 -73.90     1.596     1.441   0.0375        122     54.86184
 4.25    453.8175  23.0128     103.4843   1533.1399  37.40     0.789     0.678   0.3343        123     31.85195
 4.77    461.9124  21.5810     386.8876   1096.1415  54.26     1.154     1.060   0.1540        124     54.86184
 3.50    472.0581  20.3120     1245.138    254.1115 -72.83     1.524     1.321   0.0445        125     51.02943
 5.24    462.3787  21.6612     359.3512    724.6503 -28.34     1.116     0.728   0.1439        126     47.60064
 7.33    457.6994  23.0273     102.1113   1223.6606 -43.04     0.565     0.339   0.3388        127     31.85195
 3.50    472.9619  19.8060      1984.23    734.7726 -38.59     1.496     1.347   0.0279        128     51.02943
 3.50    478.7603  19.5623     2483.632    922.8173 -35.32     1.542     1.446   0.0236        129     53.92928
 3.92    478.7928  20.7659     819.6617   1276.8333 -53.34     1.380     1.256   0.0702        130      52.9803
 4.35    476.5132  22.8338     122.0352   1168.0372 -89.76     0.813     0.676   0.2927        131     32.89655
 3.50    484.9571  20.5726     979.4325   1070.4276 -66.11     1.365     1.226   0.0516        132     46.52275
 4.94    496.9649  19.8456     1913.124     82.5904  56.28     2.338     2.068   0.0637        133     112.1623
 5.47    489.7042  21.0326     641.1517    839.5638  81.89     1.979     0.873   0.1265        134     74.69944
 4.63    481.6934  23.1692     89.59851   1309.1306  71.28     0.894     0.694   0.4676        135     38.57462
 3.61    479.8593  22.3727     186.6046    682.6146  17.68     1.030     0.720   0.1823        136     31.31658
 3.88    496.4434  19.7956     2003.369   1186.7407 -14.15     2.923     1.792   0.0493        137     91.02452
 4.18    531.9177  17.7097      13680.5    519.0345  19.57     4.599     2.664   0.0097        138     122.7139
 5.97    481.6788  22.6433     145.4402   1520.4889  -0.10     0.921     0.467   0.3008        139     40.28988
 3.55    505.2574  20.5201     1027.958    763.0582  35.35     1.785     1.613   0.0662        140     62.63316
 3.50    516.2610  19.4282     2810.213   1461.0070  24.27     4.360     1.650   0.0374        141     96.78661
 3.50    502.7141  21.4782     425.3416    863.5473  86.71     1.246     1.113   0.1101        142     43.12774
 3.50    498.6335  22.1183     235.8766    366.2104 -49.90     1.014     0.951   0.1629        143     35.37335
 3.50    514.5807  21.0179     649.8943   1179.1083 -56.81     1.339     1.067   0.0701        144     41.93504
 5.57    510.5956  20.8088     787.9001    164.3583  -2.33     2.204     1.004   0.1175        145     85.26967
 4.31    520.2776  21.5914     383.2015    641.3948 -72.01     1.257     0.919   0.1359        146     47.95455
 8.43    511.4783  22.5079     164.7499    453.4845  44.06     0.503     0.496   0.2764        147     41.93504
 3.50    519.1761  23.1632     90.09985   1518.8835  43.19     0.828     0.669   0.3212        148     26.64925
 4.34    541.0017  20.1899     1393.242    999.7307 -58.22     1.570     1.410   0.0519        149     66.55965
 4.08    536.7367  21.7759     323.3168    404.4981  50.90     1.364     0.752   0.1422        150     42.33634
 6.50    545.6520  21.9460      276.431    933.8276  70.97     1.235     0.753   0.2565        151     65.27707
 3.67    559.8237  19.8528     1900.476   1041.5420 -18.80     1.576     1.487   0.0337        152     59.01929
 4.48    597.4241  18.4522     6904.063    782.7071 -83.49     3.546     3.355   0.0251        153     159.4719
 4.22    571.6400  20.2026     1377.112     45.6350  59.09     1.992     1.404   0.0576        154     73.09773
 4.23    556.2178  22.9033     114.4645    778.7784  45.56     0.804     0.683   0.3022        155     31.85195
 3.50    581.4234  18.2704     8162.636    144.8262 -85.18     1.779     1.649   0.0081        156     60.99184
 3.50    572.2887  20.0077     1647.907   1448.0997  21.34     2.785     1.717   0.0521        157     79.09722
 3.95    565.5809  21.6674     357.2954    139.6900 -53.99     1.148     1.009   0.1311        158     43.12774
 3.50    582.9966  18.2924     7999.416    318.9901 -38.33     1.741     1.676   0.0083        159     60.99184
 6.39    563.6564  24.0748     38.91089    905.5596   5.49     1.049     0.627   1.5052        160     53.92928
 6.81    576.9733  21.8151     311.8698   1001.5247 -66.98     1.399     1.121   0.3084        161     88.57667
 3.50    585.4980  21.3161     493.7993     75.9934  34.12     1.282     1.160   0.0974        162     44.28833
 7.52    579.6700  22.5548     157.7964    740.6813 -45.55     0.569     0.338   0.2334        163     33.90899
 5.26   1004.8461  23.3671     74.67041   1237.8387  49.76     0.764     0.567   0.5214        164     35.84818
 4.64   1597.9813  20.9939     664.4214    655.1420 -30.36     1.787     1.341   0.1019        165     62.36261
 5.62   1595.9124  21.3671      471.142    374.0342  41.13     1.272     1.258   0.1580        166     68.56189
 6.89   1594.0922  23.1463      91.5116   1384.9442 -19.49     1.473     0.518   0.7304        167     61.54381
 6.99   1592.8507  24.0365     40.30945    567.1038  41.77     0.836     0.671   1.4614        168     54.24191
 3.50   1586.8704  22.0808     244.1553   1069.2076 -26.32     0.977     0.733   0.1369        169      30.7719
