#   1 KRON_RADIUS            Kron apertures in units of A or B                         
#   2 Y_IMAGE                Object position along y                                    [pixel]
#   3 MAG_BEST               Best of MAG_AUTO and MAG_ISOCOR                            [mag]
#   4 FLUX_BEST              Best of FLUX_AUTO and FLUX_ISOCOR                          [count]
#   5 X_IMAGE                Object position along x                                    [pixel]
#   6 THETA_IMAGE            Position angle (CCW/x)                                     [deg]
#   7 A_IMAGE                Profile RMS along major axis                               [pixel]
#   8 B_IMAGE                Profile RMS along minor axis                               [pixel]
#   9 MAGERR_BEST            RMS error for MAG_BEST                                     [mag]
#  10 NUMBER                 Running object number                                     
#  11 FLUXERR_BEST           RMS error for BEST flux                                    [count]
 4.25     94.1570  16.8849     29243.18   1124.7493 -68.11     8.199     3.769   0.0087          1      233.179
 4.95     47.3470  19.2524     3304.096     46.5410 -16.09     3.493     3.138   0.0532          2     161.7931
 3.50     32.9521  18.1613     9025.429    449.8849 -71.56     1.861     1.763   0.0076          3     62.79834
 3.50      7.8402  16.1454     57786.36    752.8575 -61.82     2.123     2.040   0.0014          4     72.65588
 7.90      7.3287  22.8334     122.0731   1284.2866 -47.46     0.554     0.344   0.3096          5     34.79995
 5.06      3.8817  20.6881      880.552     72.1736 -16.48     1.297     1.175   0.0697          6     56.55421
 7.09      3.6434  21.0750     616.6177    946.9975 -11.20     1.397     0.946   0.1257          7      71.3622
 6.93      2.7658  20.9150     714.4637    934.9667   5.19     1.486     1.178   0.1127          8     74.13665
 5.98      1.3488  22.1067     238.4133   1254.5757  -1.93     0.882     0.476   0.1436          9     31.52255
 6.38      1.0000  23.3025     79.25208   1325.0350   0.00     0.860     0.289   0.3415         10     24.92076
 8.37     13.0423  21.7692     325.3143    858.5358  89.71     0.808     0.499   0.1745         11     52.27423
 7.51     27.2427  21.0512     630.2672    906.0284  62.58     1.235     1.115   0.1500         12     87.04448
 7.02     19.4468  21.9974     263.6592    234.2249  20.99     0.737     0.451   0.1639         13     39.79527
 8.06     24.1636  21.3245     490.0057    896.5063  -0.34     0.979     0.746   0.1523         14      68.7018
 3.50     32.3549  21.8555      300.479   1514.8187  89.71     1.186     1.023   0.1366         15      37.7942
 6.47     27.5052  23.5699     61.95227    374.4735  45.86     0.511     0.488   0.5526         16     31.52255
 5.35     33.3109  23.1436     91.73975      7.0528 -29.41     0.877     0.600   0.4522         17      38.2028
 7.27     32.5028  22.3719     186.7477    914.0272  -0.56     0.785     0.500   0.2672         18     45.95161
 4.86     69.0796  18.4949     6638.017   1463.1573 -72.90     2.832     2.480   0.0208         19     127.4375
 4.92     47.9787  22.6310     147.0953    228.2468  34.97     0.788     0.492   0.2177         20     29.48664
 5.48     49.6894  23.6866      55.6377    343.8810 -30.33     0.884     0.599   0.7843         21     40.18352
 0.00     48.6995  99.0000    -13.22632   1227.5970 -41.42     0.589     0.322  99.0000         22     13.64966
 8.16     50.9994  22.3952     182.7683    205.2584  89.97     0.683     0.438   0.2628         23     44.22997
 5.15     63.4169  20.9320     703.4204    888.7960 -31.82     3.064     0.817   0.1256         24     81.32726
 4.55     61.9151  21.1868      556.241   1014.1193  49.58     1.303     1.242   0.1110         25     56.82808
 3.50     95.2679  16.5052     41488.36    916.6253 -19.93     2.422     2.058   0.0020         26     76.81094
 5.83     64.5669  21.3350     485.2993    893.1599 -16.96     2.011     0.917   0.1258         27     56.21385
 6.77     80.7907  20.9108      717.261    541.1888 -68.13     2.157     1.464   0.1798         28     118.7338
 4.77     65.6199  21.4812     424.1459    970.7142 -47.07     1.062     0.962   0.1236         29     48.25885
 5.02     77.5636  19.9758     1696.957    183.5630  37.16     1.710     1.612   0.0522         30     81.51794
 3.55     94.6228  19.0481     3988.073    346.8269 -35.99     1.677     1.593   0.0158         31     57.91062
 5.25     93.1689  20.9092     718.3417    737.2796  14.59     1.251     1.167   0.0938         32      62.0522
 8.20     88.5198  22.0143      259.582   1025.5172  44.87     0.510     0.489   0.1681         33     40.18352
 4.37    106.6651  20.1357     1464.596    973.7143 -40.27     2.136     1.690   0.0606         34     81.70818
 3.53    106.5207  19.3455     3032.536     47.5245 -36.46     1.582     1.560   0.0195         35     54.31354
 6.54    100.5170  22.2106     216.6487    356.8520 -25.56     1.159     1.063   0.3610         36     72.01195
 3.50     98.5842  24.7411      21.0658    326.1557 -76.66     1.017     0.724   1.4927         37     28.95531
 6.50     94.3919  22.1172     236.1118   1248.7111 -17.31     0.722     0.459   0.1681         38     36.54101
 8.16     99.6920  22.8495     120.2842    173.3035  45.27     0.553     0.345   0.3182         39     35.24328
 8.06    106.0233  21.0446     634.0941    266.4735 -26.77     1.097     0.647   0.1161         40      67.7918
 4.83    115.4942  21.1571     571.6812    924.7029  69.09     1.227     1.049   0.1032         41     54.31354
 3.66    125.6434  19.3779     2943.437    300.7448 -25.91     1.673     1.549   0.0216         42     58.44437
 5.28    110.8920  21.7777     322.7874   1457.8762 -43.13     0.852     0.658   0.1299         43     38.60708
 5.57    118.1392  20.9899     666.8474     79.4567  35.20     1.594     1.028   0.1144         44     70.26595
 5.84    111.6869  22.9705     107.5962   1000.3212  44.58     0.563     0.341   0.2577         45     25.53618
 7.47    113.3548  22.9063     114.1515    460.6852  46.69     0.578     0.332   0.2999         46     31.52255
 4.38    114.4853  22.5061     165.0328     65.9743   2.48     0.781     0.499   0.1796         47     27.29933
 3.50    151.1911  17.2993     19964.93     45.4971 -66.61     2.041     1.875   0.0040         48     73.15982
 3.50    212.7002  13.8465     480158.4    966.9963  67.45     3.034     2.400   0.0002         49     93.24495
 4.55    130.1674  21.1838     557.7925     55.4243  86.66     1.181     0.973   0.0933         50     47.93604
 5.19    133.8928  21.3929     460.0884   1498.3713  36.64     1.003     0.833   0.1116         51     47.28382
 5.56    135.5188  23.4075     71.94409    735.5063 -70.98     0.956     0.414   0.5320         52     35.24328
 3.50    140.9441  21.2210     539.0118    218.5828  77.42     1.254     0.994   0.0778         53     38.60708
 4.75    158.6899  18.8514     4780.181     50.1477  10.83     2.348     2.026   0.0153         54     67.56132
 4.56    173.5511  18.8761     4672.779    556.9188  77.23     2.496     2.317   0.0251         55     108.0538
 6.34    144.6918  22.7596     130.6649   1194.3496  43.12     0.573     0.335   0.2407         56     28.95531
 4.48    152.7633  21.6073     377.6432    879.2148 -71.16     0.960     0.844   0.1167         57     40.56806
 4.57    183.9569  18.6486     5762.065   1262.7585 -84.47     2.679     2.323   0.0213         58     113.1084
 5.32    164.2391  21.4870     421.8762   1521.2362 -68.47     1.229     1.012   0.1511         59     58.70942
 5.85    166.0432  21.1842     557.6014    745.9159 -22.96     1.387     1.130   0.1390         60      71.3622
 5.41    163.4534  21.5565     395.7238   1154.1659  29.17     1.143     0.805   0.1402         61     51.07236
 3.50    185.4392  18.0173      10305.8    377.8520  44.06     1.855     1.791   0.0066         62     63.04509
 6.81    169.3121  21.8559     300.3557   1159.0532  72.00     1.088     0.734   0.2198         63     60.78827
 0.00    164.5888  99.0000    -30.50781    871.5212 -37.71     0.510     0.481  99.0000         64     28.41404
 6.12    173.3908  21.1527     574.0074    944.2777  23.96     1.450     1.084   0.1426         65     75.38273
 7.83    164.0000  22.2412     210.6229    757.9688   0.00     0.857     0.289   0.2052         66     39.79527
 6.57    174.5070  21.6805     353.0143    961.2061 -89.43     0.936     0.726   0.1644         67     53.44908
 3.50    237.4089  14.4147     284522.5   1389.3002 -60.89     2.351     2.198   0.0003         68     79.00314
 6.38    188.7956  21.0504     630.7404   1070.2379 -66.16     1.461     1.296   0.1154         69       67.042
 6.71    195.9452  19.8160     1966.004   1065.9102 -53.12     1.931     1.731   0.0672         70     121.7042
 4.45    205.1032  19.1177     3740.277    985.2596 -83.24     1.782     1.741   0.0171         71     58.97804
 3.57    206.2079  18.8257     4894.581     21.3743 -77.09     1.693     1.604   0.0130         72     58.44437
 4.34    201.3544  20.0133     1639.341    185.4896  86.30     1.485     1.274   0.0394         73      59.4975
 7.05    189.0036  23.9571     43.36853   1594.2350 -89.83     0.680     0.424   0.9256         74     36.96346
 0.00    191.5366  99.0000    -9.226929   1097.4672  44.41     0.505     0.492  99.0000         75     22.28981
 3.50    224.9645  17.2811     20303.83   1092.9434 -75.05     1.945     1.811   0.0035         76     65.22388
 4.38    204.9958  20.6253     932.9976    353.2603  49.54     1.546     1.354   0.0731         77     62.79834
 6.59    201.9016  20.8595     751.9731    411.7759  22.68     1.623     1.125   0.1270         78      87.9318
 7.27    201.7012  21.8400     304.7909   1294.1659 -70.66     1.030     0.553   0.1935         79     54.31354
 3.95    219.1305  19.3869      2919.01   1020.2579 -10.95     2.049     1.908   0.0290         80     77.81506
 3.90    216.9382  20.5442     1005.389   1198.2729 -67.75     1.806     1.434   0.0665         81     61.54974
 4.80    209.8886  22.4820     168.7285    908.2451 -60.11     1.031     0.637   0.2511         82     39.00716
 4.71    268.0666  18.5574     6266.497    140.2715  63.45     5.455     1.957   0.0263         83     151.7918
 3.88    223.2836  20.6059     949.8203   1178.1260  36.13     1.421     1.146   0.0566         84     49.52903
 6.87    213.4799  22.4436     174.8029   1061.5094  44.65     0.512     0.487   0.1958         85     31.52255
 5.89    243.6765  19.3592     2994.413    660.2729  56.74     2.330     2.070   0.0463         86     127.5592
 7.19    232.5093  19.8948     1828.495    654.0221   4.33     2.686     1.524   0.0855         87     144.0239
 3.64    243.0972  18.5398     6368.988    566.2015  29.51     1.831     1.749   0.0111         88     65.22388
 3.50    258.9529  17.7328     13393.18   1426.3889 -55.02     2.082     1.737   0.0052         89     64.74604
 4.32    236.7304  19.6312     2330.822    836.5421 -23.65     1.479     1.402   0.0283         90     60.78827
 4.43    234.4972  20.7418     838.0636    879.8083 -56.66     1.317     1.124   0.0689         91      53.1578
 3.65    247.8586  18.8148     4944.038    576.9484  28.21     1.725     1.657   0.0125         92     57.00012
 5.68    241.6002  20.2577     1308.931    368.8590 -66.00     1.584     1.499   0.0721         93     86.86592
 0.00    231.4599  99.0000    -30.81116   1316.5281 -43.68     0.508     0.490  99.0000         94     19.30354
 6.87    256.0625  20.4397     1106.923     76.0572 -78.27     2.310     1.137   0.1084         95     110.4696
 3.82    286.3719  17.4060      18096.9   1328.0706 -62.90     3.890     3.155   0.0079         96     131.7505
 5.62    254.1811  19.4442     2768.936   1369.5127 -46.50     1.972     1.808   0.0411         97     104.8451
 4.51    238.3008  24.2535     33.00647   1316.6440  42.47     0.572     0.335   0.6351         98     19.30354
 7.32    243.0217  21.0485     631.8524    966.3827 -11.22     1.220     0.776   0.1208         99     70.26595
 8.17    249.4651  21.3395     483.2864   1163.2465 -87.55     1.011     0.708   0.1528        100     68.02044
 4.76    251.7740  21.8434     303.8365    914.5338 -22.40     1.742     0.609   0.1748        101     48.89806
 6.79    262.3152  20.5969     957.7527    410.3904 -36.29     1.932     1.068   0.1091        102     96.19543
 4.93    296.6697  18.6131     5953.225    374.3661  32.26     5.369     2.131   0.0301        103     164.7411
 4.63    279.1549  19.1250     3715.279   1128.3959 -42.43     2.378     1.745   0.0272        104     93.07829
 5.14    265.0267  21.5694     391.0618    271.3459  62.87     1.163     0.935   0.1476        105      53.1578
 4.02    265.3846  22.6487     144.7227    721.8150  85.12     0.992     0.380   0.1870        106     24.92076
 5.52    266.8948  22.0567     249.6499    766.6589  13.69     1.008     0.750   0.2071        107     47.61105
 0.00    267.8004  99.0000    -21.64001   1587.3848 -72.59     0.760     0.451  99.0000        108      33.8959
 3.50    281.3238  19.1903     3498.546    954.9826 -84.42     1.527     1.520   0.0165        109      53.1578
 3.50    286.3437  19.6972     2193.459    743.1180  68.50     1.558     1.417   0.0253        110     51.07236
 5.12    279.5313  22.8981     115.0134    885.4368 -74.77     0.499     0.496   0.2353        111     24.92076
 4.28    313.5876  18.5450       6338.7    792.2487  34.69     2.350     1.960   0.0156        112     91.05461
 6.52    298.8550  21.1944     552.3719    863.1819   4.80     1.090     0.985   0.1306        113     66.40343
 3.50    338.2658  17.1377     23169.35    595.9975  86.26     1.988     1.823   0.0031        114      66.1692
 3.50    374.0516  14.3018     315699.9   1262.5981 -43.64     2.343     2.212   0.0003        115     78.60911
 6.78    314.6675  20.7448     835.7748    802.7544 -18.94     1.737     1.419   0.0821        116     63.17153
 3.50    332.8217  18.2038     8679.221    788.9773  77.38     1.801     1.696   0.0075        117     60.01714
 7.92    310.6430  22.0911     241.8473   1549.2216 -16.94     0.748     0.446   0.2033        118     45.27081
 6.14    323.1217  21.0413     636.0575    832.5522  78.74     1.122     1.038   0.1101        119     64.50579
 5.08    323.1987  20.7794     809.5216    288.7291  15.01     1.259     1.110   0.0791        120     58.97329
 3.58    335.5175  19.9017     1816.931   1145.5067  -3.58     2.145     1.792   0.0413        121     69.15231
 4.64    328.8070  20.5143     1033.448    720.3349   3.49     1.256     1.173   0.0594        122     56.55421
 7.17    326.4636  21.7250     338.8529    156.8145  84.35     1.010     0.378   0.1372        123     42.80281
 5.31    334.9207  20.7159     858.3019    661.6074  26.59     1.595     1.397   0.0990        124     78.21309
 6.72    335.5432  20.8024     792.5963   1037.4845 -50.33     1.435     0.834   0.0981        125     71.57944
 4.62    361.3767  18.8889     4617.884    708.3899 -68.65     2.379     2.219   0.0247        126      104.993
 7.08    347.7137  22.6784     140.8119   1598.6823 -79.01     1.124     0.968   0.4609        127     59.75788
 3.60    375.0627  17.9941     10528.46   1363.9340   2.09     3.088     2.411   0.0100        128     96.99908
 5.22    360.9517  20.6761     890.3386    640.6298  75.08     1.416     1.325   0.0865        129     70.92573
 7.34    348.8523  22.1429     230.5818   1576.8534  47.93     0.767     0.569   0.2211        130     46.95431
 3.50    363.9760  19.6424         2307    504.0932 -14.26     1.535     1.436   0.0245        131     51.97637
 9.13    358.2023  21.8879     291.6351   1050.3724  72.23     0.754     0.446   0.1924        132     51.67679
 5.78    369.4063  20.7385     840.6398   1341.4336  28.52     1.585     0.990   0.0925        133     71.57944
 7.95    359.4590  22.1915      220.499   1094.5118 -21.09     0.500     0.498   0.1979        134     40.18352
 7.06    369.6529  21.7589     328.4344    643.0444 -67.01     1.486     0.435   0.1852        135     56.00245
 8.31    363.6567  22.1934     220.1058     97.3249  45.78     0.578     0.333   0.1782        136     36.11361
 3.56    389.2385  18.5089     6552.903   1463.0966  57.58     1.796     1.631   0.0099        137     59.75788
 4.08    401.0529  18.3051     7906.357    824.7330  48.37     3.253     2.740   0.0166        138     120.6793
 4.81    377.7523  21.0912     607.4808    162.8285 -35.17     1.129     1.085   0.0940        139      52.5704
 3.50    385.9117  20.1780     1408.696    867.6343 -73.67     1.442     1.322   0.0372        140     48.25885
 6.46    383.3534  20.6029     952.4169   1277.6696  75.68     1.166     1.055   0.0814        141      71.3622
 3.50    392.8899  19.3899     2910.926   1317.5302 -48.64     1.483     1.396   0.0186        142     49.84152
 4.52    451.1505  17.6499     14455.75   1219.8578  56.07     6.476     2.500   0.0135        143      179.187
 3.50    413.7905  17.3132     19711.68     67.1341 -60.83     1.974     1.853   0.0037        144     66.40343
 6.39    391.2280  21.5644     392.8733   1206.1643 -88.79     1.130     0.746   0.1586        145      57.3719
 3.50    417.1918  16.9646     27174.04   1307.9253  37.73     1.929     1.914   0.0027        146     66.40343
 7.10    413.1869  21.5065     414.3658    665.6929  81.38     1.328     0.991   0.2121        147     80.94453
 7.54    410.2010  21.7651     326.5679    749.6277 -26.28     1.191     0.770   0.2344        148     70.48656
 3.50    458.0979  15.5915     96245.41     12.4038 -59.41     2.124     2.082   0.0008        149     72.44187
 7.10    420.3788  21.1851     557.1299    101.8098  71.35     1.223     0.902   0.1433        150     73.50568
 8.84    415.5115  21.7902     319.0923   1157.4949 -44.64     0.504     0.496   0.1469        151     43.16402
 8.79    420.2401  21.2274     535.8651    890.9982   1.82     0.800     0.551   0.1174        152     57.91062
 7.59    421.2487  22.5779     154.4648   1572.0276  -1.34     0.693     0.432   0.2852        153     40.56806
 6.96    425.6347  21.5918     383.0685    962.6557 -44.37     0.851     0.522   0.1312        154     46.28826
 3.75    439.7845  20.0785      1543.79    908.6335 -52.06     1.883     1.435   0.0428        155     60.78827
 3.50    466.2373  16.2624     51886.39   1074.6401 -82.23     2.009     1.929   0.0014        156     68.47543
 4.93    439.3988  21.2642     517.9753    814.9534 -86.52     0.990     0.950   0.1005        157     47.93604
 4.06    450.3367  19.8943     1829.266    174.3367  24.26     1.781     1.447   0.0384        158     64.74604
 3.66    449.1495  20.2152     1361.197    290.5052  -2.34     1.266     1.220   0.0361        159     45.27081
 3.75    462.7975  19.5778     2448.287    275.5684  22.46     1.563     1.439   0.0248        160     56.00245
 4.60    457.7794  20.8972     726.3021   1159.6694  30.96     1.323     1.096   0.0829        161     55.44519
 4.24    464.8949  20.8802     737.7472   1190.3889  89.16     1.284     1.008   0.0701        162     47.61105
 5.44    462.5362  21.4286     445.1971   1091.4558  46.22     1.073     0.828   0.1238        163     50.76745
 7.04    458.3414  23.1558     90.71265    977.3062 -46.69     0.569     0.338   0.3530        164     29.48664
 3.50    488.4671  18.1408     9197.467    573.8985  65.18     1.749     1.715   0.0070        165     59.23597
 3.50    478.8458  20.3023      1256.25   1017.2892 -36.08     1.346     1.227   0.0385        166     44.57961
 6.16    474.5374  21.3225      490.915   1137.3838  51.60     1.144     0.789   0.1275        167     57.64189
 7.74    473.0392  21.7604     327.9694    250.0121 -88.81     0.629     0.610   0.1533        168     46.28826
 8.05    480.7053  21.7099     343.5762   1570.9915 -56.06     1.184     0.443   0.1813        169      57.3719
