#   1 NUMBER                 Running object number                                     
#   2 FLUX_BEST              Best of FLUX_AUTO and FLUX_ISOCOR                          [count]
#   3 FLUXERR_BEST           RMS error for BEST flux                                    [count]
#   4 MAG_BEST               Best of MAG_AUTO and MAG_ISOCOR                            [mag]
#   5 MAGERR_BEST            RMS error for MAG_BEST                                     [mag]
#   6 KRON_RADIUS            Kron apertures in units of A or B                         
#   7 X_IMAGE                Object position along x                                    [pixel]
#   8 Y_IMAGE                Object position along y                                    [pixel]
#   9 A_IMAGE                Profile RMS along major axis                               [pixel]
#  10 B_IMAGE                Profile RMS along minor axis                               [pixel]
#  11 THETA_IMAGE            Position angle (CCW/x)                                     [deg]
         1     105581.9     80.64646  15.4958   0.0008  3.50   1809.4619     47.7751     2.089     2.052  -1.17
         2      1908.76     85.27242  19.8529   0.0485  3.97    128.1734     25.0814     2.091     1.738 -45.03
         3     6433.707     134.9773  18.5336   0.0228  4.54    104.8332     15.3222     3.175     2.184  -6.11
         4      1226.05     59.96079  20.3335   0.0531  3.72    391.8920     13.0684     1.504     1.341  59.41
         5     529.4646     74.12109  21.2452   0.1520  6.76    683.3903     13.6875     1.254     0.771  -2.32
         6        21175     99.88973  17.2402   0.0051  3.50   1272.4957      2.9619     3.973     2.324  -9.60
         7     595.0635     49.64063  21.1184   0.0906  3.67    710.6763     10.1252     1.267     1.089  38.74
         8     3730.669     50.04586  19.1253   0.0146  3.50   1789.0267      2.0099     1.899     1.180   0.33
         9     497.7581     67.26379  21.3122   0.1468  8.50    146.3240      5.9299     0.738     0.673 -81.33
        10     154.2981     33.02587  22.5839   0.2324  6.64    889.3494      3.7148     0.562     0.339  41.64
        11     156.6531     34.81232  22.5674   0.2413  5.82   1557.7551     13.9713     0.685     0.430 -88.59
        12     553.4354     70.48958  21.1971   0.1383  5.29    481.9894     21.4538     1.249     1.094   5.47
        13     745.7653     74.93414  20.8733   0.1091  4.57    283.2458     24.3629     1.667     1.254 -14.97
        14     283.5536      53.1767  21.9232   0.2037  6.52    573.2457     21.3041     0.854     0.623 -30.80
        15     5089.567     64.19075  18.7881   0.0137  3.50   1592.2009     39.7215     1.666     1.578 -60.76
        16     535.6843     57.20248  21.2325   0.1160  4.61   1992.9584     28.7470     1.178     1.024  10.63
        17     1225.144     62.59768  20.3343   0.0555  3.50     37.1807     37.4445     1.688     1.470  76.99
        18     160.1467     40.69718  22.5435   0.2760  6.20     54.5985     26.8429     0.736     0.448  70.13
        19     977.8069     51.63502  20.5791   0.0573  3.59    430.7780     35.4037     1.277     1.273 -74.85
        20     276434.8     86.21469  14.4508   0.0003  3.50     84.8643     83.8007     2.244     2.160  -3.95
        21      6670.77     66.66052  18.4943   0.0109  3.50   1392.4606     47.2534     1.707     1.656  40.24
        22     520.4089     80.14398  21.2639   0.1672  6.38    483.5290     37.2027     1.500     0.835 -89.12
        23     334.4832     60.63077  21.7438   0.1969  5.97    290.7148     33.5543     1.164     0.705  14.45
        24     197.7161     41.19049  22.3147   0.2262  8.37   1831.3383     28.3340     0.580     0.332 -44.82
        25     259.3528      52.7955  22.0201   0.2211  6.73    857.3048     32.0227     0.738     0.676  79.38
        26     6323.448     66.35683  18.5524   0.0114  3.51   1630.2522     50.6770     1.677     1.660  43.05
        27     434.9465     65.74523  21.4587   0.1642  7.78    199.1733     36.0702     0.846     0.670 -50.26
        28      621.543     46.70563  21.0711   0.0816  3.50    898.0880     43.1428     1.244     1.113  55.11
        29     302.2133     63.55831  21.8540   0.2284  6.22    700.6210     40.5510     0.995     0.802 -75.23
        30     280.1497     49.23206  21.9363   0.1908  4.93    985.7956     43.1997     0.887     0.868  79.54
        31     252.3301     52.02472  22.0499   0.2239  5.31    945.3765     43.4737     0.946     0.807 -80.54
        32     164.4714     45.83255  22.5146   0.3026  8.01    781.5137     40.5179     0.509     0.490  44.80
        33      378.972     56.84828  21.6083   0.1629  7.30   1639.3257     43.8012     0.736     0.651  22.33
        34      339.024     60.29671  21.7292   0.1931  6.61   1689.1411     47.4660     1.155     0.572  64.14
        35     21693.28     73.02294  17.2140   0.0037  3.50   1562.9475     78.6238     1.875     1.830  79.05
        36     287.8295      57.5545  21.9069   0.2172  6.37   1044.5131     48.8061     0.817     0.795  88.44
        37     292.6118     37.06055  21.8891   0.1375  3.50    938.2899     53.6231     1.014     0.910  20.78
        38     1253.803     104.0494  20.3092   0.0901  5.34   1211.8975     67.4396     1.823     1.643 -27.65
        39     176.9055     39.69215  22.4354   0.2437  4.28    630.8182     59.8182     1.530     0.484  43.25
        40     270.3356     38.13499  21.9750   0.1532  3.50    910.6484     64.0894     1.372     0.665 -45.58
        41     342.9612     61.62207  21.7167   0.1951  7.20    888.1830     64.1118     0.830     0.666 -47.87
        42     1974.511     108.2359  19.8161   0.0595  4.98   1157.3732    136.9296     2.620     1.404 -11.59
        43     4490.511     69.62464  18.9240   0.0168  3.72   1858.2599     84.9909     1.685     1.631  71.86
        44     338.0638     62.27417  21.7323   0.2001  6.90    166.9249     74.9768     1.158     0.573 -64.99
        45     647.3778     76.26997  21.0269   0.1279  6.19   1145.3097     75.9414     1.204     0.982  58.20
        46     399.9636     66.96284  21.5497   0.1818  7.33    146.2144     73.8695     1.021     0.657 -59.05
        47     2697.359     59.28325  19.4774   0.0239  3.50    147.8975     85.5553     1.568     1.494 -70.42
        48     1545.687     70.20245  20.0820   0.0493  4.43   1742.1411     83.2871     1.455     1.356  52.08
        49     132.8293     33.02587  22.7465   0.2700  6.45   2024.6877     74.6615     0.570     0.337 -46.24
        50     80429.13     80.64646  15.7912   0.0011  3.50    409.0343    119.3527     2.062     2.012 -22.81
        51     274.2057     55.40885  21.9596   0.2194  9.56   1958.4961     77.4801     0.500     0.499  28.47
        52     548.9629     66.35683  21.2059   0.1313  5.19   1138.6598    136.9196     1.253     1.021  65.79
        53     1384.791     98.05299  20.2013   0.0769  5.79    467.8998     96.5909     1.569     1.440 -35.84
        54     1037.299     98.05299  20.5150   0.1027  6.53   1929.6885     92.0373     1.368     1.284  31.82
        55     4348.999     66.66052  18.9588   0.0166  3.50    203.0595    103.3458     1.747     1.635  42.96
        56     561.1134      76.7978  21.1822   0.1486  6.32    913.5170     90.7653     1.286     0.914 -66.85
        57     14509.55     177.3949  17.6506   0.0133  4.01    363.6902    158.2316     6.237     2.478  70.04
        58     1462.254     60.66286  20.1422   0.0451  4.54    210.1937     98.8311     1.596     1.463  11.85
        59     1061.472     54.30424  20.4900   0.0556  3.67    965.2560     96.5028     1.346     1.281 -24.37
        60      2648.34     65.74523  19.4973   0.0270  3.76    224.8436    103.2407     1.645     1.472  16.46
        61     646.8359     62.59768  21.0278   0.1051  4.80   1234.5125     98.0901     1.307     0.994  86.90
        62     363.3267     64.19075  21.6540   0.1919  6.39   1740.3676     94.4370     0.961     0.826 -69.49
        63     519.3179     78.35995  21.2662   0.1639  8.40   1289.9292     93.2749     1.065     0.647  32.15
        64     339.3618     62.59768  21.7281   0.2003  8.02    907.1627     95.6481     0.751     0.653  60.49
        65     608.2867     64.19075  21.0945   0.1146  4.32    662.3414    104.0908     1.497     1.164  60.39
        66     480.0842     62.59768  21.3515   0.1416  4.66    617.4846    104.8935     1.247     1.103   3.78
        67     393.5917     71.90802  21.5672   0.1984  6.64   1173.9756    104.3713     1.815     0.503 -32.58
        68     362.4841     66.05173  21.6566   0.1979  6.69    421.6488    104.4429     0.953     0.821  64.64
        69     889.9984     66.35683  20.6813   0.0810  4.57    638.8632    111.4689     1.340     1.250   1.28
        70     477.9048     50.84665  21.3564   0.1155  4.42    975.7573    108.3102     1.079     0.964  25.38
        71     820.5018     78.35995  20.7696   0.1037  5.05    238.1115    116.7018     1.428     1.303 -37.68
        72     5992.981     73.29902  18.6107   0.0133  3.50     17.1366    129.8689     1.977     1.734 -37.25
        73     97.57458     49.23206  23.0814   0.5480  8.81   1199.4955    107.5183     0.500     0.500  14.02
        74     174.9709      34.2272  22.4474   0.2124  5.62   1351.7662    115.7704     0.853     0.347  71.84
        75     690.3895     51.63502  20.9570   0.0812  3.60   1575.7261    124.6857     1.290     1.222  48.11
        76     1655.567     62.27417  20.0074   0.0408  3.60    237.8255    134.5454     1.599     1.469 -64.98
        77     523.8473     44.03449  21.2568   0.0913  3.58   1053.9829    123.9276     1.136     1.095 -89.50
        78     232.2014     46.70563  22.1401   0.2184  6.46    272.5155    120.5023     0.972     0.413  18.66
        79     1964.717     112.6256  19.8215   0.0623  5.11    217.8281    136.0206     2.547     1.523   3.12
        80     345358.4     88.52649  14.2091   0.0003  3.50    841.4165    202.0947     2.290     2.207 -26.26
        81     135.7081     36.51147  22.7233   0.2922  5.46    265.3993    127.2258     0.767     0.450  71.91
        82     491.8751     49.23206  21.3251   0.1087  3.50    617.4883    135.3488     1.385     1.135  38.37
        83     379.3606     42.63621  21.6072   0.1221  3.50    497.8210    132.3410     1.251     0.947  15.89
        84     1549.376     113.8741  20.0794   0.0798  5.21   1421.2386    171.0096     2.618     1.421   3.11
        85     341.0458     51.24235  21.7227   0.1632  5.21   1461.6962    135.4933     1.147     0.672  53.07
        86     250.0272     41.67797  22.0598   0.1810  4.56    991.9123    136.6467     0.904     0.696 -64.24
        87     116315.6     83.11328  15.3907   0.0008  3.50     57.8205    180.8305     2.121     2.063   1.03
        88     890179.5     264.9703  13.1811   0.0003  3.50    446.7198    423.8297     7.028     6.434 -23.01
        89     845.9652     88.75436  20.7364   0.1139  6.05   1018.4108    148.9804     1.360     1.234  33.26
        90     449.0532     78.35995  21.4240   0.1895  7.28   1777.9203    146.9513     1.247     0.737 -74.82
        91     209.0115     49.23206  22.2544   0.2558  7.44    927.2054    146.3951     0.778     0.445  18.42
        92     384.9701     52.02472  21.5912   0.1468  4.67    942.3511    154.6954     1.160     0.849 -59.53
        93     484.3409     56.13318  21.3419   0.1259  4.48    499.2713    155.0822     1.129     1.096 -69.81
        94     89.92419     28.42414  23.1701   0.3433  5.71    217.6546    152.3335     0.583     0.330  44.53
        95     2511.113     112.4461  19.5551   0.0486  4.65    267.4341    181.0154     2.502     1.838 -86.61
        96     405.7961     43.57338  21.5340   0.1166  3.50    115.1227    164.5790     1.171     1.046 -33.13
        97     290.1803     54.67493  21.8981   0.2046  6.12   1861.7961    161.3596     0.969     0.640 -16.23
        98     201.4573     44.94251  22.2943   0.2423  6.25   1309.8341    161.8151     0.762     0.564  46.14
        99     762.0911     97.64013  20.8498   0.1391  7.08   1774.1622    168.8051     1.489     0.996  35.94
       100     621.3711     54.30424  21.0714   0.0949  4.24    965.9404    168.9172     1.215     1.075  38.12
       101     317.7897     55.04311  21.7994   0.1881  6.61    946.1003    163.9012     0.831     0.673  45.04
       102     2375.602     105.9729  19.6153   0.0484  4.68   1478.5349    185.2039     2.317     1.719  65.92
       103     199.0376     31.77916  22.3074   0.1734  3.50    692.0450    169.4879     0.828     0.679  85.91
       104     208.8115     50.44785  22.2554   0.2624  7.59    123.7763    168.6057     0.747     0.448  19.01
       105      590.787     67.56342  21.1262   0.1242  4.68   1175.8380    180.9934     1.451     1.118 -32.67
       106     552.3645     51.63502  21.1992   0.1015  3.53   1651.2532    188.5265     1.423     1.243  -2.23
       107     760.9817     91.22334  20.8513   0.1302  7.44    853.2240    187.4356     1.178     1.020  48.89
       108     2679.629     61.29342  19.4846   0.0248  3.50   1286.7784    198.1050     1.602     1.476  59.92
       109     190.6901      52.7955  22.3540   0.3007  8.07   1297.4166    183.2076     0.745     0.451  70.39
       110      3403.46     63.55831  19.2250   0.0203  3.50   1316.4335    199.2946     1.617     1.599 -66.66
       111     391.2908     50.84665  21.5735   0.1411  4.34   1382.2776    191.1088     1.089     1.003  -1.59
       112      272.155     57.20248  21.9677   0.2283  5.92   1127.5168    190.2158     0.980     0.724   2.25
       113     721.2838     90.55666  20.9095   0.1363  6.03   1996.5325    198.5749     1.484     1.196 -38.76
       114     450.2682     67.26379  21.4211   0.1622  6.11   1874.3276    200.9094     1.055     0.900  84.50
       115     428.6735       69.042  21.4745   0.1749  5.62    286.9711    202.8932     1.456     0.814  36.64
       116     1169.175     73.84808  20.3851   0.0686  4.76    905.5334    210.8043     1.516     1.257 -87.00
       117     283.7827     56.13318  21.9223   0.2148  5.91   1385.7551    203.5934     0.983     0.713 -87.31
       118     373.6184     56.84828  21.6237   0.1652  5.13   1567.1519    207.3578     1.127     0.855  23.80
       119     362.6268     60.63077  21.6561   0.1816  6.27    174.6127    209.0812     1.036     0.731 -15.94
       120     481.4791     73.02294  21.3483   0.1647  6.05   1674.9954    221.7847     1.556     0.718 -84.52
       121     3730.709     64.81702  19.1253   0.0189  3.50   1319.2437    234.4955     1.677     1.557  87.11
       122     228.4841     45.83255  22.1576   0.2178  8.19   1766.5563    214.5098     0.502     0.494  56.15
       123     283.0902      53.1767  21.9250   0.2040  5.97   1560.6688    218.9956     1.027     0.628 -35.88
       124     1130.889     60.29671  20.4212   0.0579  3.98    867.2000    232.7005     1.481     1.249  15.26
       125     443.5031     69.33393  21.4375   0.1698  5.64   1769.6071    230.5946     1.235     0.957  10.83
       126       742.51     73.57407  20.8780   0.1076  4.54   1024.9519    238.0278     1.547     1.339   8.89
       127     1529.104     79.12946  20.0937   0.0562  3.71   1603.9935    247.9480     2.268     1.582  36.25
       128     238.5447     54.67493  22.1109   0.2489  6.71    801.4216    235.3030     0.936     0.549  32.27
       129     300.7247     62.91952  21.8594   0.2272  6.99   1172.6427    236.1177     0.974     0.671  17.78
       130     362.9541     56.84828  21.6552   0.1701  4.95   1848.4601    245.3051     1.236     0.837  57.40
       131       835.45     57.90438  20.7500   0.0753  3.83    240.0003    249.9222     1.395     1.286 -60.10
       132     577839.1     93.19478  13.6503   0.0002  3.50    850.3535    332.4452     2.442     2.305 -10.62
       133     872.2267     48.82006  20.7032   0.0608  3.50     58.4184    256.2734     1.390     1.098  29.38
       134     4770.588     164.6393  18.8584   0.0375  5.44    599.3572    281.6423     2.831     2.551 -59.38
       135     454.1475     58.25216  21.4118   0.1393  5.19   1938.5734    258.9586     1.062     0.897 -66.93
       136     513.5447     60.63077  21.2783   0.1282  5.13    505.8069    267.4176     1.189     0.933 -55.77
       137     1884.405     98.87353  19.8668   0.0570  4.42    726.3789    275.9170     2.355     1.672  10.96
       138     282.3876     58.59787  21.9277   0.2254  6.30   1078.7241    267.7991     0.894     0.768   6.10
       139     13564.26     71.62658  17.7238   0.0057  3.50     51.8876    293.7979     1.834     1.800  41.00
       140     1930.634      92.9778  19.8405   0.0523  4.49    985.2731    284.1187     2.066     1.635   9.43
       141     668.8151     46.27115  20.9915   0.0751  3.53   1168.9657    273.8155     1.204     1.120  34.52
       142     171.1136     42.15982  22.4716   0.2676  7.17   1515.5095    267.5219     0.501     0.498  41.85
       143     292.0646      53.1767  21.8911   0.1977  5.54   1480.8132    272.1343     0.979     0.748 -28.88
       144     272.8219     55.04311  21.9651   0.2191  6.71   2025.0941    273.3091     0.888     0.596 -29.87
       145     136.8246     31.77916  22.7144   0.2522  5.23    838.2280    275.0131     0.697     0.420 -89.45
       146     288.5616     50.04586  21.9042   0.1883  5.10   1156.8646    278.5295     1.034     0.720  47.16
       147     300.1017     55.77219  21.8616   0.2018  4.92    818.3969    282.1840     1.184     0.854 -46.76
       148     627.6932     74.66411  21.0604   0.1292  5.78    547.8062    284.5416     1.323     0.987  20.93
       149     145.9034     35.95401  22.6446   0.2676  6.38   1571.4686    279.4843     0.500     0.499  78.09
       150     415.5758     50.84665  21.5082   0.1329  4.29    433.3553    289.3799     1.187     0.938  60.81
       151     1643.419     56.84828  20.0154   0.0376  3.50   1438.4133    294.8807     1.451     1.440  54.96
       152     1072.881     72.18837  20.4784   0.0731  3.82   1524.7085    298.4335     2.206     1.295 -13.69
       153     1572.007      92.9778  20.0636   0.0642  4.18    961.7872    304.3109     2.325     1.670  30.98
       154     328.1715      68.1587  21.7645   0.2256  7.22   1876.1555    293.9982     0.947     0.748  -2.17
       155     5497.573      115.109  18.7044   0.0227  4.28    616.9211    320.3971     2.491     2.308 -76.42
       156     264.1417     34.81232  22.0002   0.1431  3.50     92.8669    301.6922     1.030     0.744  77.39
       157     3297.056     64.81702  19.2595   0.0213  3.50     69.5812    315.5953     1.696     1.590   6.94
       158     358.4507     56.84828  21.6687   0.1722  6.36   1643.0951    303.6768     0.911     0.689  67.24
       159     668255.1     246.5702  13.4924   0.0004  3.50    182.8338    589.6677     6.547     5.990 -17.24
       160     14086.67     192.5723  17.6828   0.0148  4.86    666.2453    350.5802     4.069     3.045 -43.26
       161     21744.01     73.57407  17.2114   0.0037  3.50   1015.9412    335.1689     1.898     1.836  -2.43
       162     3706.038     72.46763  19.1325   0.0212  3.87    906.0149    327.7777     1.738     1.578  28.58
       163     1450.173     65.74523  20.1512   0.0492  3.98    517.9651    330.8407     1.530     1.391 -11.76
       164      6230.52     67.86171  18.5685   0.0118  3.50    212.7338    342.3271     1.717     1.698 -10.85
       165     271.9889      53.1767  21.9684   0.2123  5.80   1528.4736    323.8529     1.128     0.583 -25.76
       166     19115.03     128.8526  17.3513   0.0073  3.50    365.0495    367.1026     3.945     2.723  31.65
       167     1317.856     97.01756  20.2551   0.0799  6.92    223.4326    338.8359     1.345     1.155 -18.41
       168     190.7483     48.40457  22.3536   0.2756  6.20    393.0092    326.4298     0.778     0.612  88.69
       169     1193.674     75.73847  20.3626   0.0689  4.47   1552.3898    340.3760     1.755     1.281 -70.86
