#   1 KRON_RADIUS            Kron apertures in units of A or B                         
#   2 MAGERR_APER            RMS error vector for fixed aperture mag.                   [mag]
#   3 Y_IMAGE                Object position along y                                    [pixel]
#   4 X_IMAGE                Object position along x                                    [pixel]
#   5 THETA_IMAGE            Position angle (CCW/x)                                     [deg]
#   6 FLUX_APER              Flux vector within fixed circular aperture(s)              [count]
#   7 A_IMAGE                Profile RMS along major axis                               [pixel]
#   8 B_IMAGE                Profile RMS along minor axis                               [pixel]
#   9 FLUXERR_APER           RMS error vector for aperture flux(es)                     [count]
#  10 MAG_APER               Fixed aperture magnitude vector                            [mag]
#  11 NUMBER                 Running object number                                     
 4.41   0.0037     54.0758     63.6034   6.75     38296.09     4.379     4.004     129.6841  16.5921          1
 3.66   0.0249     17.4136    984.8228 -87.92     5657.282     3.732     1.708     129.7422  18.6685          2
 3.81   0.0308     18.7962     91.1034 -67.25     4574.007     1.571     1.479     129.6629  18.8993          3
 3.50   0.0138     15.4618   1445.5586 -65.93      10180.1     1.661     1.588     129.6894  18.0306          4
 7.63   0.2458      4.3685    145.1962  17.69     477.3767     0.755     0.445     108.0521  21.3528          5
 5.90   0.1895     18.0262    384.0147  44.76     743.2769     0.889     0.533     129.7263  20.8721          6
 4.26   0.1396     25.4560    366.9562 -30.78     1008.802     1.205     1.017     129.7105  20.5405          7
 3.50   0.0029     60.5946   1078.2482  78.99     49383.93     2.003     1.894     129.7158  16.3160          8
 8.74   0.2251     34.3225    326.3239 -44.93      625.787     0.568     0.338     129.6999  21.0589          9
 7.76   0.4197     43.0166    915.4982 -57.51     335.4335     0.786     0.317     129.6418  21.7360         10
 3.50   0.0002    182.7565   1107.2883 -33.46     594505.9     5.458     4.811     129.6841  13.6146         11
 3.50   0.0030     80.9641    537.4206 -64.56     47146.09     1.933     1.854     129.7475  16.3664         12
 4.32   0.0751     76.0022    127.6434   4.16     1875.746     1.252     1.146     129.7211  19.8671         13
 7.41   0.3893     82.8177    421.3966 -70.69     361.8902     0.768     0.443     129.7263  21.6536         14
 6.37   0.1403     91.1871    376.8294 -45.36     1004.469     1.373     1.033     129.7211  20.5452         15
 3.50   0.0020    122.5955    788.9210 -60.42     69760.84     2.028     1.903     129.6788  15.9410         16
 4.18   0.0476     97.3836     55.9652  26.68      2960.47     1.407     1.368     129.7528  19.3716         17
 7.03   0.1949     99.0022    452.5193 -26.45     722.6904     1.068     0.660     129.6788  20.9026         18
 3.50   0.0036    163.1363   1468.1375 -62.90     39424.67     1.913     1.819     129.6841  16.5606         19
 3.50   0.0005    194.4274    317.8813 -61.95     299875.7     2.315     2.075     129.6788  14.3576         20
 3.50   0.0156    171.1503    877.1309 -55.12     9008.646     1.658     1.594     129.6682  18.1634         21
 4.65   0.0037    235.6645    403.5279 -41.76      37697.7     5.702     4.705     129.6894  16.6092         22
 4.54   0.2329    165.6820   1445.5413  19.57     604.8273     1.115     0.930     129.6894  21.0959         23
 5.53   0.0595    172.4563    325.0473 -86.86     2368.242     1.300     1.158     129.6999  19.6139         24
 5.47   0.2887    167.5449    104.2042 -51.07     487.8793     0.985     0.937     129.7105  21.3292         25
 7.85  99.0000    170.3342   1368.3384 -44.83    -20.37559     0.580     0.332     129.6735  99.0000         26
 4.60   0.1391    193.3884   1350.3032 -37.44     1012.395     1.279     1.002     129.6259  20.5366         27
 4.70   0.0331    211.6114    827.4163  -9.06     4254.428     2.963     1.698     129.7316  18.9779         28
 3.73   0.0821    207.4908    548.9009 -53.40     1715.608     1.382     1.220     129.6629  19.9640         29
 7.24   0.2957    204.4811    250.5076  36.95     476.2555     0.500     0.499     129.6788  21.3554         30
 6.12   0.0847    209.4427    349.7659  55.13     1662.507     1.427     1.084     129.7158  19.9981         31
 3.50   0.1126    212.9865   1305.8654 -82.20     1250.505     1.291     1.247     129.7052  20.3073         32
 6.31   0.2943    211.4448    684.7709 -89.13     478.6907     0.978     0.724     129.7052  21.3499         33
 5.92   0.0349    231.0869    561.7985 -14.58     4038.167     2.541     2.369     129.6682  19.0345         34
 4.19   0.0663    224.5206   1225.8544 -66.20     2123.604     1.409     1.318     129.6894  19.7323         35
 3.97   0.2761    223.2466    774.6445 -11.22     510.1826     1.088     0.911     129.6999  21.2807         36
 7.86   0.0932    223.2873    345.5081 -53.29      1510.91     1.094     0.828     129.6841  20.1019         37
 3.50   0.0013    260.5662    997.2288 -62.80     106109.3     2.052     1.951     129.7422  15.4856         38
 3.50   0.0016    266.7018     67.3903 -79.21     89619.81     2.030     1.922     129.6418  15.6690         39
 6.02   0.0794    244.4015    112.8098  87.30     1774.034     1.624     1.215     129.7316  19.9276         40
 9.02   0.3796    239.6895    838.6416 -42.96     371.0471     0.578     0.332     129.6788  21.6264         41
 4.94   0.0361    256.2683    612.7941 -36.28     3906.814     1.973     1.617     129.7316  19.0704         42
 7.04   0.1450    251.2775    107.5645 -70.48     971.3858     0.725     0.459     129.6629  20.5815         43
 7.50   0.2799    252.7829   1372.4308 -69.93     503.4094     0.740     0.453     129.7263  21.2952         44
 3.50   0.0004    313.2035    439.2134 -58.92     366933.1     2.277     2.111     129.7316  14.1385         45
 3.50   0.0067    288.3456   1486.2816 -50.16     20918.99     1.773     1.704     129.6894  17.2486         46
 7.79   0.6653    271.3755   1273.7629 -17.73     211.7745     0.755     0.447     129.7369  22.2353         47
 3.50   0.0330    282.7355   1522.1680 -58.33     4262.369     1.479     1.402     129.6947  18.9759         48
 4.39   0.0832    290.6225    514.6550 -64.31      1692.32     1.556     1.393     129.7211  19.9788         49
 3.50   0.0091    303.9821    201.5968 -63.35      15522.1     1.728     1.630     129.7263  17.5726         50
 3.50   0.0023    319.4946    905.2604 -60.82     61238.66     1.978     1.867     129.6735  16.0824         51
 3.78   0.0784    294.7055   1327.4375 -47.70     1796.536     1.323     1.264     129.6471  19.9139         52
 6.32   0.1910    294.4589   1475.2285 -88.93     737.6084     0.931     0.715     129.7158  20.8804         53
 7.59   0.1558    297.7295   1413.8472 -57.77     903.7314     1.412     0.801     129.6841  20.6599         54
 3.50   0.0004    352.2283    890.5814 -56.08     323890.8     2.244     2.095     129.7369  14.2740         55
 4.63   0.5314    302.9988    563.5146 -82.91     265.0054     1.088     0.954     129.6788  21.9919         56
 3.50   0.0005    352.2422   1345.7249 -54.64     312372.4     2.216     2.086     129.6735  14.3133         57
 3.50   0.0142    322.8688    697.1343 -28.26     9934.078     1.647     1.600     129.6735  18.0572         58
 8.72   0.2395    308.5074     85.4808 -46.76     588.0358     0.502     0.497     129.6894  21.1265         59
 7.00   0.1757    322.6497    641.1228 -76.26     801.4391     1.652     0.634     129.6894  20.7903         60
 4.73   0.0821    328.1193    595.2094  20.51     1715.861     1.453     1.372     129.6682  19.9638         61
 5.75   0.3463    333.0812     93.3310 -24.07     406.7402     0.890     0.687     129.6894  21.5267         62
 3.77   0.0188    347.1420    866.8646 -45.26     7476.672     1.651     1.523     129.6682  18.3657         63
 6.63   2.1428    336.0265   1440.2896  89.92     65.70891     0.726     0.676     129.6524  23.5059         64
 3.92   0.0236    356.6105    431.6310 -74.45     5962.562     1.829     1.608     129.7316  18.6114         65
 4.03   0.1991    350.8782     54.3170 -75.76     707.4624     1.161     1.104     129.6894  20.9257         66
 3.50   0.0132    368.9768    760.8847 -60.15     10660.65     1.613     1.559     129.6629  17.9805         67
 3.50   0.0978    362.1071   1500.2202  -8.85      1439.68     1.295     1.254     129.6524  20.1543         68
 3.69   0.0346    368.3008    442.6079 -45.71      4074.24     1.502     1.374     129.6471  19.0249         69
 4.74   0.5713    361.4756   1033.9357 -61.83     246.5291     0.989     0.667     129.6947  22.0703         70
 7.74   0.7569    360.5103    533.4985  44.33     186.0282     0.502     0.498     129.6577  22.3761         71
 3.50   0.0027    396.0154    231.2811 -64.09     51929.67     1.904     1.854     129.6577  16.2615         72
 7.45   1.0261    374.2168   1084.0029 -53.86     137.2969     0.820     0.504     129.7263  22.7058         73
 4.16   0.6814    373.6597    992.2760 -47.14     206.7024     0.976     0.860     129.6999  22.2616         74
 3.50   0.0204    397.8886   1460.9867 -46.68     6918.194     1.581     1.512     129.6418  18.4500         75
 3.50   0.0170    398.9886    354.3898 -62.43     8277.307     1.604     1.532     129.7316  18.2553         76
 3.63   0.1004    394.5599   1088.5066 -26.76      1401.94     1.303     1.293     129.6577  20.1832         77
 3.50   0.0030    420.4062    433.1503 -62.14     47328.99     1.902     1.807     129.7158  16.3622         78
 3.50   0.0062    416.4527    837.1818 -63.71     22641.11     1.806     1.708     129.7263  17.1628         79
 7.95  99.0000    397.3274    977.3210 -45.30     -171.988     0.569     0.338     129.6947  99.0000         80
 8.68   0.2541    398.4764    627.4811 -41.88     554.2212     0.500     0.499     129.6947  21.1908         81
 3.66   0.0361    425.0089    926.1632 -34.01     3903.675     1.506     1.402     129.7316  19.0713         82
 3.50   0.0083    438.7677    251.9255 -53.57     16985.61     1.734     1.667     129.6841  17.4748         83
 5.29   0.1286    421.8422    158.7650  45.21     1095.044     1.306     1.074     129.7211  20.4514         84
 3.50   0.0010    461.8552    807.3752 -53.65     146736.3     2.078     1.966     129.7158  15.1337         85
 6.47   0.3845    427.6801   1179.1434  28.18     366.3022     0.860     0.608     129.6947  21.6404         86
 3.50   0.1389    433.6889   1421.8654 -43.82     1013.849     1.244     1.194     129.7052  20.5351         87
 6.15   0.2555    434.9741    150.9762  35.97      551.569     0.787     0.769     129.7528  21.1960         88
 3.59   0.0254    451.1293     21.1607 -44.60     5540.943     1.605     1.472     129.6894  18.6910         89
 4.18   0.3967    440.7336    305.4700 -18.10     354.9733     0.972     0.956     129.6735  21.6745         90
 5.32   0.0236    468.5677    850.2765  23.09     5977.371     6.473     1.667     129.6629  18.6087         91
 5.98   0.1550    446.1450    122.1042 -41.00     908.4065     1.212     1.029     129.6735  20.6543         92
 5.99   0.1437    447.9012    883.5998  -4.17     980.0098     1.532     0.983     129.6471  20.5719         93
 3.54   0.0228    458.6724     34.3886 -61.55     6175.166     1.547     1.447     129.6999  18.5734         94
 7.28  99.0000    453.6877   1533.3097  45.15    -122.4702     0.558     0.343     129.6841  99.0000         95
 3.80   0.0828    464.5611    468.4572 -57.87     1702.023     1.359     1.286     129.7052  19.9726         96
 5.78   0.5168    461.9602   1096.1885   3.86     272.6295     0.903     0.755     129.7422  21.9611         97
 4.10   0.0859    472.1687    254.1147 -70.05     1638.387     1.346     1.210     129.6629  20.0140         98
 3.87   0.0607    472.9409    734.7567 -45.64     2320.292     1.398     1.272     129.6947  19.6361         99
 3.50   0.0499    478.8141    922.8201 -14.94     2825.558     1.426     1.388     129.7316  19.4222        100
 4.39   0.1372    478.8120   1276.7761  79.76      1026.83     1.151     1.097     129.7263  20.5213        101
 3.50   0.1507    484.9312   1070.4033 -40.62     934.7526     1.257     1.173     129.7211  20.6233        102
 7.06   1.3379    479.6900    682.3505  43.19     105.2827     0.574     0.335     129.6999  22.9941        103
 5.24   0.0586    496.5620   1186.5326 -13.80      2404.23     2.531     1.477     129.6894  19.5976        104
 5.54   0.0559    496.9911     82.6506  42.17     2521.337     1.932     1.709     129.7158  19.5459        105
 8.60   0.2166    489.1940    839.3719  71.60     650.2798     0.774     0.439     129.7052  21.0172        106
 3.50   0.0113    513.2878   1302.2383 -34.02     12452.83     1.737     1.662     129.6629  17.8118        107
 6.25   0.8742    499.0030    365.9965 -43.16     161.1765     0.888     0.533     129.7475  22.5317        108
 4.71   0.0074    533.8983    518.5938  29.05     18959.16     3.593     2.882     129.6524  17.3555        109
 4.67   0.1668    502.7880    863.4911 -88.24     843.7606     1.151     0.977     129.6312  20.7345        110
 5.91   0.3133    502.2048   1310.0718 -40.47     449.5123     0.845     0.651     129.6999  21.4181        111
 6.23   0.1197    505.1451    762.7928  -0.44     1176.968     1.309     1.253     129.7105  20.3731        112
 4.50   0.0474    516.1095   1460.7418  23.86     2972.118     3.656     1.299     129.6788  19.3673        113
 6.97   0.1541    510.6393    165.5776  -9.65      914.568     0.956     0.809     129.7369  20.6470        114
 4.98   0.0746    514.2516   1310.0317 -10.83     1887.303     1.302     1.185     129.7158  19.8604        115
 3.86   0.1794    514.4966   1179.0813 -24.60     785.1937     1.149     0.942     129.6894  20.8126        116
 6.45   0.2905    520.1909    641.4284 -43.08     484.8947     1.057     0.724     129.7052  21.3359        117
 3.84   0.0827    540.9624    999.7307 -73.14     1703.167     1.366     1.235     129.6894  19.9719        118
 3.50   0.0004    588.6868   1315.8517 -53.51     335568.2     2.208     2.086     129.6894  14.2355        119
 3.77   0.0623    559.8197   1041.5360 -10.01      2259.84     1.430     1.373     129.6841  19.6648        120
 6.55   2.3496    556.5087    778.4934  44.42     59.93913     0.501     0.499     129.6788  23.6057        121
 3.50   0.0193    573.3907   1242.7067 -70.93     7304.381     1.587     1.566     129.6418  18.3910        122
 4.80   0.0859    571.7554     45.6411  63.91     1639.178     1.743     1.230     129.7105  20.0134        123
 4.75   0.1062    571.9938   1447.6349  17.02     1327.147     1.936     1.347     129.7211  20.2427        124
 5.41   0.1843    565.7161    139.8198 -69.04     764.1217     0.941     0.673     129.6524  20.8421        125
 3.50   0.0143    581.4632    144.8293 -62.40     9814.887     1.657     1.558     129.6894  18.0703        126
 3.50   0.0142    582.9963    319.0084 -53.22     9934.469     1.652     1.592     129.7422  18.0571        127
 3.50   0.0003    631.9548    483.1556 -53.47     420860.8     2.703     2.536     129.7052  13.9897        128
 5.78   0.0749    575.6501   1336.6445 -73.37     1880.369     1.283     1.093     129.6947  19.8644        129
 7.40   0.3017    577.1536   1001.2869 -58.48     466.7972     0.881     0.595     129.6894  21.3772        130
 5.06   0.0225    597.7562    782.5263 -44.52     6258.367     2.724     2.576     129.6735  18.5588        131
 5.10   0.2788    585.4762     75.9200  -0.33     505.2608     1.098     0.936     129.6947  21.2912        132
 5.00   0.1111   1000.7210   1273.7208 -39.34     1268.312     1.144     1.095     129.7052  20.2919        133
 5.97   0.0915   1598.2085    655.0115 -35.87     1208.848     1.534     1.035     101.8486  20.3441        134
 5.89   0.1469   1595.7100    374.0864 -77.66     823.4621     0.996     0.765     111.3691  20.7609        135
 5.78   0.3270    965.9652    416.2867 -79.61     430.6515     0.732     0.686     129.6524  21.4647        136
 6.15   0.1724    952.0816    654.2863  50.14     817.0293     1.032     0.904     129.6841  20.7694        137
 5.27   0.5579    948.7292    445.0576 -10.29     252.4501     0.736     0.667     129.6788  22.0446        138
 4.35   0.0604    939.9413   1067.0511 -70.41     2331.767     1.362     1.231     129.6841  19.6308        139
 7.65   0.1631    939.0228    516.0239  42.70     864.1564     0.900     0.531     129.7528  20.7085        140
 3.50   0.0088    930.5162   1178.4572 -74.12     15921.95     1.719     1.674     129.6894  17.5450        141
 4.68   0.0871    929.1131   1322.3604 -58.76     1617.477     1.197     1.136     129.6735  20.0279        142
 4.76   0.1423    913.6943    838.5510  -0.76     989.8857     1.175     1.096     129.6894  20.5610        143
 5.71   0.1744    913.0289   1000.9688  21.72     807.8168     0.786     0.778     129.7581  20.7817        144
 7.36   0.2015    905.2064   1315.0332  37.37     699.1608     0.941     0.465     129.7263  20.9386        145
 3.50   0.0217    901.2192    302.7968 -56.43      6492.34     1.598     1.493     129.7316  18.5190        146
 3.50   0.0004    882.8276    183.6549 -39.32     345578.1     3.919     3.518     129.7105  14.2036        147
 5.21   0.0912    897.0114    538.4737   4.14     1544.846     1.584     1.338     129.6947  20.0778        148
 6.81   0.1735    894.8954   1425.8496 -46.45     811.6937     0.836     0.667     129.6788  20.7765        149
 4.83   0.0225    880.0612    224.4287  89.40     6248.215     6.562     1.705     129.7052  18.5606        150
 3.50   0.0011    881.0674   1592.5128 -60.01     117930.6     2.043     1.933     121.4537  15.3709        151
 6.36   0.2231    889.6176    325.1285  22.79     631.2943     1.309     0.828     129.6894  21.0494        152
 5.72   0.0907    886.5520   1500.2416  80.29      1552.79     1.169     1.105     129.7105  20.0722        153
 6.10   0.1186    886.5384   1304.6620  66.27     1187.047     1.188     0.961     129.6841  20.3638        154
 6.94   0.3056    885.8094    339.1945 -44.36     461.1184     0.774     0.566     129.7475  21.3905        155
 6.29   0.0859    878.8572   1176.9626  70.73     1640.472     1.518     1.189     129.7052  20.0126        156
 5.06   0.1432    878.3696    960.6808  48.92       983.22     1.058     0.941     129.6682  20.5684        157
 6.16   0.5155    877.6598    541.6873 -46.29     273.2081     0.571     0.336     129.6947  21.9588        158
 4.70   0.0423    870.2359   1103.6483 -67.14     3330.795     1.791     1.565     129.7052  19.2436        159
 3.50   0.0005    860.0745   1224.5040 -47.86     302985.5     2.220     2.101     129.6894  14.3464        160
 6.18   0.0997    868.7445    939.5904  23.21     1413.393     1.548     1.093     129.7263  20.1743        161
 7.42   0.4211    870.4847    643.4907 -44.26     334.4332     0.503     0.497     129.6788  21.7392        162
 4.93   0.1398    860.3788   1157.4387   2.85     1007.782     1.270     1.034     129.7422  20.5416        163
 6.19   0.1466    859.1392   1339.7198 -63.00     960.4384     1.222     0.856     129.6841  20.5938        164
 7.18   0.0715    845.4885   1206.4347 -40.40     1969.942     1.106     0.846     129.6471  19.8139        165
 5.39   0.2818    845.7783   1063.5769 -17.74     499.9758     0.962     0.946     129.7422  21.3026        166
 5.13   0.1090    844.0469   1106.1366  18.76     1291.877     1.371     1.162     129.6788  20.2719        167
 5.79   0.0487    838.6966   1247.0575 -30.24     2889.813     1.687     1.411     129.6682  19.3978        168
 3.68   0.1193    837.3986    298.7006 -41.02     1180.146     1.274     1.135     129.6471  20.3702        169
