#   1 KRON_RADIUS            Kron apertures in units of A or B                         
#   2 Y_IMAGE                Object position along y                                    [pixel]
#   3 MAG_BEST               Best of MAG_AUTO and MAG_ISOCOR                            [mag]
#   4 FLUX_BEST              Best of FLUX_AUTO and FLUX_ISOCOR                          [count]
#   5 X_IMAGE                Object position along x                                    [pixel]
#   6 THETA_IMAGE            Position angle (CCW/x)                                     [deg]
#   7 A_IMAGE                Profile RMS along major axis                               [pixel]
#   8 B_IMAGE                Profile RMS along minor axis                               [pixel]
#   9 MAGERR_BEST            RMS error for MAG_BEST                                     [mag]
#  10 NUMBER                 Running object number                                     
#  11 FLUXERR_BEST           RMS error for BEST flux                                    [count]
 4.47     94.4127  16.8576     29987.51   1125.4513 -67.03     8.432     4.008   0.0093          1     256.6354
 3.50     47.1609  19.2382     3347.518     46.6974 -18.43     3.115     2.992   0.0343          2     105.7298
 3.50     33.0301  18.1667     8980.726    450.1791   3.93     1.743     1.661   0.0071          3     58.44437
 3.50      7.9031  16.1528      57396.8    753.4478   2.44     1.983     1.923   0.0013          4      67.7918
 6.18     12.8639  21.6871     350.8778    858.4266  50.98     1.289     0.732   0.1817          5     58.70942
 3.50      7.2113  22.6733      141.479   1284.7981 -46.48     0.737     0.563   0.1764          6     22.97581
 6.92      6.0000  22.7412     132.9006   1058.0139   0.00     0.847     0.289   0.2616          7      32.0113
 7.55      4.2469  21.2601     519.9553    947.4111  45.53     1.314     0.771   0.1397          8     66.86942
 4.12      3.8348  20.7577     825.9088     72.4608 -16.44     1.246     1.182   0.0617          9     46.95431
 6.10      2.8667  20.9049     721.2046    936.5207 -10.63     1.625     1.134   0.1038         10     68.92742
 5.45      4.6532  23.1279     93.07849    706.7065 -47.69     0.565     0.339   0.2758         11     23.64191
 4.68      1.4142  22.1676      225.397   1254.7991  -3.78     1.168     0.488   0.1446         12     30.00857
 3.50     20.2485  21.8183     310.9413    234.9529  16.47     1.096     0.906   0.1200         13      34.3509
 6.38     27.8961  21.1432     579.0786    906.5863  84.86     1.356     1.278   0.1554         14     82.84045
 7.83     24.3722  21.3557     476.1373    897.5001  53.33     1.032     0.802   0.1613         15     70.70648
 7.50     21.4723  22.5497     158.5284    123.0066 -32.35     0.789     0.316   0.2589         16      37.7942
 4.06     69.3732  18.5236     6464.671   1463.3916  74.90     3.177     2.756   0.0199         17     118.4719
 7.74     26.3235  22.6137      149.454    417.3286 -44.76     0.571     0.337   0.2430         18     33.43471
 3.72     32.4382  21.8109     313.0657   1515.2990  30.41     1.107     0.846   0.1223         19     35.24328
 3.50     33.1804  22.8790     117.0579      7.1900  44.59     0.766     0.561   0.2193         20     23.64191
 3.50     47.1839  22.9341     111.2689   1049.4036  70.29     0.741     0.448   0.1884         21     19.30354
 8.32     47.9779  21.6785     353.6757    229.0076   1.06     0.613     0.605   0.1549         22      50.4607
 4.81     62.2807  21.1932     552.9849   1014.5557  61.95     1.392     1.123   0.1179         23     60.01714
 6.14     52.4638  22.2337     212.0815    204.7005   8.76     0.973     0.482   0.2173         24     42.43853
 6.35     63.3292  20.7103     862.7506    894.4313  32.57     1.490     1.316   0.1105         25     87.75506
 3.50     95.1854  16.5079     41385.53    917.0939  -9.20     2.432     1.965   0.0020         26     75.99811
 6.68     63.8519  21.5719     390.1409    889.1374  18.53     1.225     0.942   0.1351         27     48.54383
 3.99     65.5806  21.5779     388.0021    971.4410  42.08     1.049     0.908   0.1069         28      38.2028
 3.50     77.6456  19.9530      1733.01    183.8656  35.74     1.922     1.615   0.0386         29     61.54974
 4.01     80.3084  20.7375     841.4159    542.7675 -74.51     1.942     1.344   0.0823         30     63.77962
 3.50     94.6567  19.0600     3944.674    347.2999   1.29     1.577     1.515   0.0146         31     52.86492
 6.42     88.6536  21.7368     335.1934   1026.2157  38.54     0.937     0.744   0.1713         32     52.86492
 3.75     93.2241  20.9729     677.3673    737.8329  -2.89     1.220     1.140   0.0698         33     43.52224
 8.20     87.6823  21.6260     371.1992   1076.8492 -12.12     1.079     0.416   0.1597         34     54.59865
 4.37    106.6409  20.1189     1487.372    974.6325 -73.93     2.125     1.886   0.0628         35      85.9676
 3.50    106.5787  19.3531     3011.272     47.9887 -15.76     1.548     1.459   0.0187         36     51.97637
 8.45    104.3943  20.8115     785.9718    265.9957  54.86     1.476     0.923   0.1342         37     97.15901
 9.66     94.4939  21.9611     272.6173   1248.5023  44.92     0.506     0.494   0.1935         38     48.57951
 3.50    100.2884  21.6218     372.6288    357.1915   0.39     1.135     0.906   0.1014         39     34.79995
 3.50     96.5149  22.8330     122.1226    590.4865 -44.94     0.510     0.489   0.1717         40     19.30354
 5.87     99.9511  22.7346     133.7032    173.4704  86.25     0.780     0.498   0.2968         41     36.54101
 5.94    110.1582  21.4872     421.8071   1458.8864 -14.43     1.146     0.934   0.1572         42     61.04315
 4.28    115.3070  21.1670     566.4995    925.0088 -50.53     1.258     1.145   0.0973         43     50.76745
 3.70    125.7528  19.3825     2930.834    300.9926 -16.30     1.591     1.521   0.0210         44     56.55421
 4.21    118.2691  21.0687     620.1667     79.9862  35.99     1.594     1.331   0.1069         45     61.04315
 7.06    113.9025  22.3997     182.0259     66.6563 -18.40     0.921     0.676   0.3240         46     54.31354
 8.59    112.3366  22.3272     194.5837   1000.3244 -45.54     0.575     0.335   0.2063         47     36.96346
 3.50    151.1229  17.2929     20082.72     45.8490 -52.15     1.949     1.851   0.0040         48     74.21728
 3.50    212.4886  13.8407     482747.7    967.6542  40.01     3.048     2.888   0.0002         49     102.2966
 9.18    119.3316  22.2813     202.9882    231.3272 -45.20     0.574     0.335   0.2066         50     38.60708
 4.90    130.0126  21.0493      631.364     55.4443  37.97     1.241     1.021   0.0949         51     55.16446
 5.54    133.5662  21.3746     467.9053   1498.7036  -0.10     1.148     0.959   0.1325         52     57.10064
 5.33    140.3865  21.0332     640.7943    218.2452 -66.34     1.301     1.032   0.1035         53     61.04315
 4.32    158.7005  18.7584     5207.467     50.5213  14.00     2.556     2.201   0.0163         54     78.02139
 7.56    131.6804  22.9058     114.2007   1315.2950  46.43     0.554     0.344   0.3135         55     32.96707
 4.48    152.9119  21.5954     381.7885    879.5300 -60.81     1.011     0.961   0.1228         56     43.16402
 3.72    173.7126  18.9210     4483.402    557.3240  47.42     2.364     2.321   0.0209         57     86.14801
 4.23    183.8768  18.6723     5637.612   1263.0786  -7.93     2.523     2.381   0.0197         58     102.2966
 5.13    166.4995  21.1979     550.6095    746.5167 -74.63     1.407     1.236   0.1300         59     65.93414
 4.28    164.1927  21.4834      423.303   1521.5858  74.81     1.105     0.950   0.1126         60     43.87753
 5.24    162.8947  21.6365     367.6064   1154.2748  52.79     0.950     0.930   0.1445         61     48.89806
 4.89    172.7050  21.2548     522.5159    945.0700 -51.52     1.571     1.253   0.1395         62      67.1012
 3.50    185.3256  18.0221     10259.89    378.2397 -28.54     1.786     1.762   0.0064         63     60.78827
 7.50    164.1903  22.0462     252.0686    759.0225  37.12     0.938     0.473   0.2079         64     48.25885
 7.24    168.6113  21.7754     323.4602   1158.9104  47.54     1.111     0.480   0.1735         65     51.67679
 3.94    174.5828  21.6781     353.7859    961.8307  82.06     0.977     0.930   0.1135         66     36.96346
 3.50    237.3644  14.4161     284153.1   1389.7841 -41.09     2.309     2.169   0.0003         67     77.61527
 6.87    181.0341  22.5181     163.2181    461.1556 -54.27     0.926     0.470   0.2966         68     44.57961
 6.16    196.4339  19.8528     1900.505   1066.2972 -20.88     2.031     1.821   0.0666         69     116.6228
 6.78    188.9588  21.2249     537.0964   1070.1791 -24.62     1.548     1.057   0.1186         70     58.67005
 3.50    206.1323  18.8319     4866.762     21.5627 -56.80     1.638     1.562   0.0124         71     55.44519
 3.50    201.2601  20.0967     1518.171    185.9180   6.51     1.443     1.361   0.0348         72     48.57951
 5.23    202.1462  20.9581     686.6649    412.4117  66.29     1.510     1.319   0.1149         73     72.65588
 4.88    201.9580  21.8303     307.5249   1294.5009 -85.51     1.212     0.838   0.1693         74     47.93604
 5.93    205.3313  20.3367     1217.135    353.9930  16.74     1.813     1.438   0.0845         75     94.73168
 3.50    224.9422  17.2839     20251.48   1093.4563 -59.44     1.814     1.775   0.0034         76     62.79834
 3.99    218.7306  19.3690     2967.666   1020.6931  -7.62     2.094     1.983   0.0293         77     80.17361
 4.87    216.3218  20.4625     1083.954   1198.5570  55.51     1.841     1.567   0.0819         78     81.70818
 6.51    203.9402  22.5850     153.4601    452.2255  87.50     0.695     0.417   0.2431         79      34.3509
 4.60    268.1983  18.5559     6275.302    140.7266  65.34     5.964     2.061   0.0275         80     158.9859
 3.82    210.1299  22.3076     198.1298    908.8029  49.34     0.821     0.649   0.1465         81     26.72454
 3.50    223.1118  20.6357     924.1407   1178.3679  -5.05     1.281     1.210   0.0507         82     43.16402
 6.18    213.5688  22.5533     158.0151   1061.7803  21.01     0.736     0.449   0.2452         83      35.6811
 3.89    286.2726  17.3791     18550.42   1328.5978 -54.54     4.071     3.479   0.0085         84     144.4545
 7.11    232.5957  19.8902      1836.21    654.3945  19.87     2.685     1.375   0.0796         85      134.549
 3.53    242.9650  18.5688       6201.5    566.6058  37.93     1.679     1.645   0.0100         86      57.3719
 3.55    236.5731  19.6786     2231.223    836.9667   6.66     1.498     1.372   0.0247         87     50.76745
 3.50    258.8932  17.7195     13558.43   1426.9111 -51.38     2.259     1.731   0.0055         88      68.7018
 4.05    234.9387  20.7278     848.9254    880.2339 -62.63     1.346     1.177   0.0646         89      50.4607
 5.69    244.0083  19.4630     2721.529    660.8113  37.74     2.162     1.852   0.0449         90       112.42
 3.50    247.6646  18.8291     4879.499    577.4250  67.60     1.633     1.559   0.0122         91     54.59865
 6.01    254.1846  19.3233     3095.135   1369.7998 -47.94     2.427     1.671   0.0420         92     119.7753
 6.17    241.2870  20.2359     1335.483    369.2222  30.13     1.736     1.378   0.0769         93     94.56764
 7.66    228.4811  22.5833     153.6986    906.4860  44.84     0.514     0.484   0.2728         94     38.60708
 7.03    242.2005  20.6733      892.649    966.9060 -61.08     1.771     0.956   0.1108         95     91.05461
 4.36    249.6382  21.3522     477.6393   1163.8445 -84.59     1.850     0.892   0.1261         96     55.44519
 6.57    255.1234  20.4727     1073.769     76.2674 -83.10     2.133     1.143   0.1024         97     101.2286
 6.82    243.4088  21.3364     484.6613   1339.8333  80.45     1.073     0.852   0.1440         98     64.26465
 3.50    251.5225  21.5534     396.8756    914.5157  22.95     1.473     1.146   0.1220         99     44.57961
 6.16    261.7776  20.6997       871.17    410.9438 -50.42     1.595     1.170   0.1035        100     83.02766
 4.50    296.8800  18.6004     6023.264    375.0334  30.08     5.932     2.233   0.0291        101     161.4088
 3.81    279.1085  19.1359     3678.164   1128.7777 -37.13     2.416     1.730   0.0228        102     77.21416
 4.37    264.9361  21.4678     429.4254    271.6232 -73.63     1.138     0.946   0.1119        103     44.22997
 6.46    263.5041  21.9746     269.2573    721.2064 -89.49     0.987     0.733   0.2179        104     54.02692
 3.50    281.3364  19.1889     3503.069    955.4014 -28.15     1.574     1.506   0.0163        105      52.5704
 3.50    266.9327  22.0952     240.9386    767.3180 -16.25     0.981     0.732   0.1305        106     28.95531
 3.50    286.3484  19.7124     2162.894    743.6095  40.15     1.460     1.383   0.0249        107     49.52903
 7.40    278.8119  22.2316     212.5065   1454.3896 -71.06     0.759     0.445   0.2187        108     42.80281
 6.29    279.6088  22.4806     168.9545    884.7463  18.33     0.745     0.451   0.2293        109      35.6811
 3.73    313.6259  18.5731     6176.943    792.7342  28.19     2.366     2.017   0.0141        110     80.36704
 7.37    289.1764  21.7550     329.6189   1177.8871  42.69     0.851     0.670   0.1799        111     54.59865
 7.07    292.0175  22.1627      226.428   1277.2856  87.01     0.742     0.692   0.2420        112      50.4607
 5.13    298.8221  21.2299     534.6359    863.1149  17.37     1.474     1.048   0.1291        113     63.53572
 3.50    374.0452  14.3023     315546.4   1263.0072 -33.49     2.333     2.210   0.0003        114     78.01432
 5.61    315.0114  20.8446     762.3605    803.5080  31.74     1.723     1.262   0.0786        115      55.1791
 3.50    338.2123  17.1414     23091.58    596.3755 -66.87     1.875     1.854   0.0030        116     64.50579
 3.50    332.7775  18.2112     8620.009    789.3983 -34.10     1.680     1.646   0.0072        117     57.10064
 6.26    311.5056  22.3934     183.0769   1549.0146  -1.35     0.805     0.500   0.2290        118     38.60708
 7.97    317.2074  22.2205     214.6871   1061.6068 -71.74     0.763     0.449   0.2392        119     47.28382
 5.00    323.1175  21.0729     617.7981    833.2548  -4.62     1.149     1.073   0.0965        120     54.88228
 5.46    323.2687  20.7612     823.2391    289.3503  -5.53     1.242     1.080   0.0835        121     63.29089
 3.50    328.8228  20.4942     1052.751    720.6425 -72.46     1.375     1.253   0.0460        122     44.57961
 3.50    335.3305  19.9152     1794.425   1146.0575 -32.82     2.232     1.734   0.0414        123     68.47543
 6.41    327.7767  21.3872     462.4967    157.4338  64.09     1.391     0.861   0.1624        124     69.15231
 7.76    322.0162  22.5867     153.2223   1454.0000  90.00     0.864     0.289   0.2765        125     39.00716
 5.74    335.9540  20.7531     829.3636   1038.2914 -51.54     1.658     1.399   0.1123        126      85.7868
 5.32    334.7170  20.7584     825.3486    661.8060   3.32     1.727     1.269   0.1027        127     78.01432
 3.50    361.4441  18.9287     4451.806    708.8192 -68.97     2.479     2.197   0.0196        128     80.36704
 3.50    329.3398  23.6356     58.31287    220.3325 -45.30     0.580     0.332   0.2542        129     13.64966
 4.02    375.0766  17.9543     10921.08   1364.3392   5.19     3.340     2.486   0.0114        130     114.3372
 6.59    349.8664  22.2832     202.6344   1576.3282 -74.94     1.358     0.321   0.2313        131     43.16402
 3.50    347.4366  22.4298      177.036   1599.3663  84.48     0.950     0.617   0.1409        132     22.97581
 5.25    348.1754  22.4809     168.9009     40.1509  47.67     0.757     0.568   0.2209        133      34.3509
 3.50    363.7216  19.6550     2280.419    504.4440  69.04     1.459     1.405   0.0239        134     50.15207
 4.73    360.6756  20.7490     832.5237    640.8969 -84.53     1.210     1.133   0.0727        135     55.72452
 7.26    359.7431  20.7982     795.6774   1278.9045 -66.17     1.174     1.052   0.1089        136     79.78536
 5.16    357.1693  22.6490     144.6764   1291.4176  69.78     0.750     0.447   0.2174        137     28.95531
 6.49    357.3419  21.9126     285.0768   1050.6553 -12.61     1.135     0.614   0.2036        138     53.44908
 7.49    363.0229  21.2019     548.5717     99.2650  89.07     1.168     0.847   0.1447        139     73.08202
 7.33    359.0027  22.2141     215.9562   1095.3845 -89.96     0.875     0.486   0.2361        140     46.95431
 7.56    369.7059  20.3961     1152.307   1341.3179  34.94     2.012     1.027   0.1012        141      107.333
 8.28    365.7765  20.8920     729.8188   1284.6234 -65.85     1.036     0.935   0.1199        142        80.56
 4.23    451.0447  17.6547     14392.02   1220.1050  54.56     7.010     2.619   0.0135        143     178.7533
 6.71    368.1672  21.6676     357.2301    268.3489 -52.80     1.060     0.678   0.1703        144     56.00245
 3.92    401.3127  18.3164     7824.206    825.4194  45.88     3.281     2.709   0.0161        145     115.6871
 3.55    389.2865  18.5029     6589.317   1463.5734  -5.81     1.789     1.699   0.0100        146     60.78827
 6.34    380.2635  20.6712     894.3944    959.4734 -67.00     2.181     1.119   0.1182        147     97.31869
 7.87    368.8943  21.6113     376.2388    643.5867  27.32     1.151     0.577   0.1798        148      62.3019
 3.72    377.3903  21.0342     640.1793    163.5931  83.29     1.331     1.253   0.0813        149     47.93604
 3.89    385.7827  20.1771     1409.793    867.8937  84.36     1.357     1.232   0.0377        150     48.89806
 6.27    377.7131  21.4166     450.1415    430.5041 -24.91     1.601     0.716   0.1596        151      66.1692
 6.35    383.5173  20.5950     959.4194   1278.0845  88.46     1.306     1.166   0.0879        152     77.61527
 3.55    392.8902  19.3728     2957.171   1317.9773  52.61     1.645     1.444   0.0201        153     54.59865
 3.50    413.7154  17.3186     19613.34     67.4630 -60.35     1.877     1.839   0.0035        154     63.77962
 3.50    417.2204  16.9671     27112.58   1308.3070  17.11     1.920     1.876   0.0026        155     65.46149
 5.35    391.8077  21.4290      445.053   1206.6018 -76.03     1.191     0.958   0.1387        156     56.82808
 3.50    719.8947  15.3560     119568.2    199.2038 -41.88    13.551    10.306   0.0037        157     408.5029
 5.07    393.7631  22.7246     134.9404     18.9677  -1.50     0.688     0.425   0.2151        158     26.72454
 3.50    458.0837  15.5884      96527.5     12.6700 -49.85     2.253     2.053   0.0008        159     74.55432
 3.92    413.4766  21.4634     431.1455    665.7608  68.88     1.487     0.880   0.1114        160     44.22997
 3.50    416.9565  21.6388     366.8458   1158.3895  81.84     1.470     1.033   0.1267        161     42.80281
 5.02    410.1406  21.5602     394.3855    750.1879   9.17     1.114     0.725   0.1228        162     44.57961
 5.64    421.2555  21.3806     465.3207    102.5200  61.15     1.205     1.020   0.1442        163     61.80148
 6.17    419.6847  22.2667     205.7442    889.6652 -66.61     0.907     0.718   0.1839        164     34.84449
 6.45    421.7512  21.4250      446.686    893.2390 -21.82     1.314     0.898   0.1659        165     68.24831
 6.55    425.8313  21.5330     404.3763    962.7754 -80.47     1.045     0.847   0.1612        166     60.01714
 4.90    439.7298  19.9953     1666.808    908.9675 -25.61     1.890     1.699   0.0568        167     87.22266
 3.50    466.1190  16.2626     51874.91   1075.1609 -32.82     2.018     1.954   0.0014        168      67.7918
 5.59    428.7175  22.4198      178.676   1431.8264 -31.22     0.864     0.605   0.2442        169     40.18352
