#   1 KRON_RADIUS            Kron apertures in units of A or B                         
#   2 MAGERR_APER            RMS error vector for fixed aperture mag.                   [mag]
#   3 Y_IMAGE                Object position along y                                    [pixel]
#   4 X_IMAGE                Object position along x                                    [pixel]
#   5 THETA_IMAGE            Position angle (CCW/x)                                     [deg]
#   6 FLUX_APER              Flux vector within fixed circular aperture(s)              [count]
#   7 A_IMAGE                Profile RMS along major axis                               [pixel]
#   8 THRESHOLD              Detection threshold above background                       [count]
#   9 B_IMAGE                Profile RMS along minor axis                               [pixel]
#  10 FLUX_RADIUS            Fraction-of-light radii                                    [pixel]
#  11 FLUXERR_APER           RMS error vector for aperture flux(es)                     [count]
#  12 MAG_APER               Fixed aperture magnitude vector                            [mag]
#  13 NUMBER                 Running object number                                     
 4.48   0.0028     54.1134     63.6375   5.15      29774.8     4.168     17.51707     3.795      9.761     77.62167  16.8654          1
 4.18   0.0169     17.2518    984.8208 -88.85     5003.698     3.632     17.51707     1.613      6.612     77.64801  18.8018          2
 3.73   0.0210     18.7921     91.0527 -67.39     4010.374     1.546     17.51707     1.431      3.053     77.68313  19.0420          3
 3.50   0.0083     15.4424   1445.5559 -62.54     10209.61     1.650     17.51707     1.566      2.892     77.65679  18.0275          4
 5.77   0.1759     18.1645    384.1515  44.06     479.3566     0.761     17.51707     0.567      2.207     77.63923  21.3484          5
 4.27   0.0987     25.5739    366.8953 -14.68     854.2798     1.150     17.51707     0.962      2.791     77.60409  20.7210          6
 3.50   0.0018     60.5962   1078.2424  76.97     48042.26     1.998     17.51707     1.878      3.114     77.65679  16.3459          7
 7.73   0.3106     43.3143    915.3513 -43.40     271.3079     0.576     17.51707     0.333      2.295     77.59531  21.9663          8
 3.50   0.0018     80.9674    537.4247 -67.18     45766.45     1.917     17.51707     1.816      3.002     77.63045  16.3986          9
 3.50   0.0002    182.7543   1107.3114 -33.84     508733.1     5.320     17.51707     4.706      7.243     77.58652  13.7838         10
 4.26   0.0519     76.0034    127.7169  10.01     1624.313     1.188     17.51707     1.148      2.532     77.63045  20.0233         11
 3.50   0.0012    122.5943    788.9246 -61.36     67926.77     2.004     17.51707     1.876      3.076     77.67435  15.9699         12
 4.04   0.0351     97.4281     55.9913  22.71     2404.963     1.346     17.51707     1.270      2.893     77.63923  19.5972         13
 8.23   0.0868     90.8850    376.7019 -20.39     970.2072     0.956     17.51707     0.688      4.649     77.54256  20.5828         14
 3.50   0.0003    194.4246    317.8832 -61.43     291295.4     2.286     17.51707     2.051      3.063     77.62167  14.3892         15
 3.50   0.0022    163.1353   1468.1381 -62.55     38439.13     1.875     17.51707     1.794      3.024     77.59531  16.5881         16
 3.50   0.0096    171.1655    877.1136 -49.92     8761.659     1.630     17.51707     1.557      2.928     77.62167  18.1935         17
 4.79   0.1253    165.7308   1445.5076   4.02     672.4319     0.992     17.51707     0.930      2.640     77.58652  20.9809         18
 5.69   0.0544    172.4128    325.0309 -77.11     1551.371     1.272     17.51707     1.156      4.240     77.65679  20.0732         19
 4.93   0.1409    167.6038    104.1795 -53.71     598.3587     1.013     17.51707     0.798      2.673     77.62167  21.1076         20
 4.76   0.0031    235.9160    403.1274 -54.98     27362.15     4.971     17.51707     4.426     13.197     77.56894  16.9571         21
 4.98   0.0835    193.4423   1350.3160 -32.41     1008.994     1.126     17.51707     0.910      2.781     77.61288  20.5403         22
 5.44   0.0228    211.5265    827.6342  -7.65     3692.809     2.457     17.51707     1.586      7.060     77.61288  19.1316         23
 4.12   0.0476    207.4942    548.9372 -80.12     1771.241     1.310     17.51707     1.143      2.978     77.59531  19.9293         24
 7.25   0.2633    204.4811    250.5076  36.96     320.0689     0.500     17.51707     0.499      2.554     77.60409  21.7869         25
 6.64   0.0713    209.4116    349.7701  22.88     1183.004     1.196     17.51707     0.965      4.694     77.65679  20.3675         26
 3.50   0.0525    213.0077   1305.9434 -30.97     1605.664     1.201     17.51707     1.190      2.587     77.69191  20.0359         27
 8.44   0.1529    211.2228    684.6010 -71.57     551.4123     0.753     17.51707     0.451      3.350     77.62167  21.1963         28
 5.97   0.0264    230.9360    562.0312  11.84     3198.681     2.312     17.51707     2.091      7.876     77.63923  19.2876         29
 6.71   0.0271    229.8141    414.8990 -71.47     3115.002     1.710     17.51707     1.547      8.702     77.60409  19.3164         30
 4.37   0.0371    224.6008   1225.8378 -85.78     2272.966     1.311     17.51707     1.279      3.027     77.62167  19.6585         31
 4.83   0.1426    223.2310    774.5986 -29.44     591.0192     1.026     17.51707     0.798      2.483     77.61288  21.1210         32
 3.50   0.0008    260.5680    997.2263 -60.60       103018     2.037     17.51707     1.924      3.038     77.63045  15.5177         33
 9.13   0.0820    223.0016    345.4901 -88.29     1028.275     0.803     17.51707     0.500      4.297     77.59531  20.5197         34
 3.50   0.0010    266.6997     67.3946 -76.33     86987.32     1.982     17.51707     1.886      2.974     77.61288  15.7014         35
 6.52   0.0550    244.6537    112.8341  75.03     1534.486     1.395     17.51707     1.155      5.408     77.64801  20.0851         36
 5.17   0.0241    256.3477    612.7624 -34.58     3492.536     1.872     17.51707     1.547      5.472     77.63923  19.1921         37
 7.49   0.1145    251.4937    107.4909 -45.11     735.3542     0.506     17.51707     0.494      3.033     77.56014  20.8838         38
 8.17   0.1487    252.6854   1372.6636 -43.97     566.6565     0.570     17.51707     0.337      2.694     77.58652  21.1667         39
 3.50   0.0002    313.2004    439.2152 -61.04     356285.5     2.247     17.51707     2.086      3.076     77.61288  14.1705         40
 3.50   0.0041    288.3480   1486.2738 -54.17     20327.49     1.751     17.51707     1.674      2.944     77.57773  17.2798         41
 3.50   0.0196    282.7493   1522.1841 -61.33     4300.628     1.460     17.51707     1.360      2.653     77.66557  18.9662         42
 5.11   0.0473    290.6356    514.7411 -36.50      1782.93     1.462     17.51707     1.311      3.935     77.63923  19.9222         43
 3.50   0.0056    303.9778    201.5832 -66.85     15058.59     1.714     17.51707     1.615      2.877     77.62167  17.6055         44
 3.50   0.0014    319.4937    905.2718 -62.35     59746.63     1.956     17.51707     1.848      3.007     77.58652  16.1092         45
 4.02   0.0445    294.7511   1327.3948  47.22     1894.769     1.274     17.51707     1.263      2.699     77.68313  19.8561         46
 6.28   0.1366    294.3224   1475.1021  11.40      616.579     0.727     17.51707     0.658      2.845     77.56894  21.0750         47
 8.31   0.0854    297.8722   1413.8578 -46.31     987.0363     0.853     17.51707     0.671      5.119     77.59531  20.5642         48
 3.50   0.0003    352.2238    890.5839 -55.85     314860.4     2.209     17.51707     2.073      3.074     77.62167  14.3047         49
 3.50   0.0003    352.2397   1345.7283 -55.48     303679.2     2.185     17.51707     2.061      3.074     77.63045  14.3440         50
 6.53   0.1294    303.0704    563.5995 -17.06      651.843     1.007     17.51707     0.742      3.430     77.66557  21.0146         51
 3.50   0.0085    322.8800    697.1052 -48.65     9864.836     1.600     17.51707     1.557      2.838     77.56894  18.0648         52
 7.23   0.1002    322.3919    640.9913 -72.88     841.2004     1.533     17.51707     0.349      3.509     77.59531  20.7378         53
 4.85   0.0484    328.2270    595.3594  12.77     1743.307     1.342     17.51707     1.284      3.849     77.66557  19.9466         54
 3.88   0.0125    347.1299    866.8550 -43.34      6765.45     1.633     17.51707     1.498      3.052     77.59531  18.4743         55
 6.55   0.1869    332.9962     93.4646 -88.40     451.3123     0.778     17.51707     0.498      2.405     77.67435  21.4138         56
 5.92   0.2747    336.1976   1440.3890  71.88     306.8061     0.728     17.51707     0.454      1.849     77.60409  21.8328         57
 3.94   0.0154    356.6004    431.5988 -75.33     5487.081     1.788     17.51707     1.580      3.424     77.64801  18.7016         58
 4.14   0.0985    350.8954     54.4239  75.90     855.5018     1.126     17.51707     0.959      2.445     77.61288  20.7194         59
 3.50   0.0082    368.9802    760.8908 -58.40     10222.12     1.598     17.51707     1.559      2.813     77.61288  18.0261         60
 3.76   0.0220    368.2882    442.6587 -56.28     3821.536     1.435     17.51707     1.336      2.820     77.58652  19.0944         61
 3.62   0.0506    362.0505   1500.2076 -24.28     1666.186     1.284     17.51707     1.149      2.690     77.66557  19.9957         62
 5.05   0.2465    361.3106   1033.9282 -13.90     341.8743     0.739     17.51707     0.661      1.959     77.58652  21.7153         63
 3.50   0.0017    396.0200    231.2718 -61.09     50374.11     1.874     17.51707     1.819      2.951     77.67435  16.2945         64
 5.48   0.1584    373.7695    992.0414 -88.68     532.3836     0.894     17.51707     0.751      2.675     77.66557  21.2344         65
 3.50   0.0124    397.8937   1461.0099 -39.50      6809.48     1.563     17.51707     1.472      2.796     77.61288  18.4672         66
 3.50   0.0103    399.0078    354.3785 -71.51     8214.611     1.585     17.51707     1.493      2.816     77.62167  18.2635         67
 3.66   0.0520    394.5766   1088.5724 -29.99     1620.347     1.284     17.51707     1.233      2.679     77.63923  20.0260         68
 3.50   0.0038    416.4507    837.1747 -64.92     22210.45     1.798     17.51707     1.680      2.939     77.67435  17.1836         69
 3.50   0.0018    420.3988    433.1456 -58.39     46232.19     1.886     17.51707     1.783      2.969     77.68313  16.3876         70
 3.75   0.0208    425.0381    926.1504 -47.65     4058.241     1.483     17.51707     1.353      2.891     77.63923  19.0292         71
 3.50   0.0051    438.7664    251.9352 -45.10     16424.88     1.713     17.51707     1.632      2.891     77.63045  17.5112         72
 6.61   0.0959    421.7399    158.5126  -7.53     879.0531     1.013     17.51707     0.987      3.863     77.58652  20.6900         73
 3.50   0.0006    461.8574    807.3825 -54.53     142871.1     2.057     17.51707     1.941      3.011     77.63923  15.1626         74
 3.76   0.0745    433.8073   1421.8584  31.89     1133.041     1.177     17.51707     1.104      2.783     77.68313  20.4144         75
 8.40   0.1867    427.5076   1179.4756  48.21     451.2058     0.502     17.51707     0.497      2.592     77.57773  21.4141         76
 6.16   0.1584    434.9740    150.9762  35.97     532.3161     0.787     17.51707     0.769      3.175     77.64801  21.2346         77
 4.40   0.1567    440.6718    305.3953 -46.54     538.1517     0.991     17.51707     0.875      2.539     77.66557  21.2227         78
 3.73   0.0159    451.1180     21.1858 -35.06     5307.508     1.529     17.51707     1.416      2.927     77.64801  18.7378         79
 5.41   0.0199    468.5997    850.2263  23.11     4230.057     5.828     17.51707     1.566     12.886     77.61288  18.9841         80
 6.23   0.0968    446.1815    121.9023 -14.29     870.8081     1.080     17.51707     0.836      3.488     77.61288  20.7002         81
 3.57   0.0145    458.6487     34.3971 -57.41     5833.174     1.520     17.51707     1.448      2.786     77.68313  18.6352         82
 8.14   0.0959    448.2517    883.8757  -7.80     878.8682     1.041     17.51707     0.643      4.317     77.57773  20.6902         83
 3.80   0.0456    464.5070    468.4641 -52.99     1846.657     1.324     17.51707     1.266      3.033     77.60409  19.8840         84
 5.86   0.1876    461.8690   1096.1428  45.45     449.1108     0.823     17.51707     0.671      2.667     77.59531  21.4191         85
 3.98   0.0361    472.9391    734.7498 -68.45     2337.519     1.361     17.51707     1.217      2.769     77.61288  19.6281         86
 4.43   0.0540    472.1027    253.9982 -64.88     1561.954     1.241     17.51707     1.108      2.815     77.61288  20.0658         87
 3.50   0.0292    478.7898    922.8477 -20.02     2886.675     1.403     17.51707     1.353      2.712     77.66557  19.3990         88
 4.07   0.0834    478.8117   1276.7957 -50.21     1010.488     1.136     17.51707     1.024      2.646     77.59531  20.5387         89
 3.50   0.0710    485.0125   1070.3956 -46.82     1186.366     1.195     17.51707     1.127      2.502     77.59531  20.3645         90
 5.91   0.0394    496.9854     82.8541  55.90     2139.271     1.818     17.51707     1.496      5.964     77.66557  19.7243         91
 5.91   0.0406    496.5325   1187.0388 -13.62     2074.187     2.128     17.51707     1.330      6.030     77.63045  19.7579         92
 3.50   0.0070    513.2896   1302.2393 -42.36      11988.6     1.658     17.51707     1.592      2.898     77.59531  17.8531         93
 4.84   0.0056    533.8892    518.5785  30.84     15054.77     3.346     17.51707     2.728      8.544     77.62167  17.6058         94
 6.60   0.0678    505.0350    762.6558 -88.65     1243.969     1.252     17.51707     1.016      4.811     77.63923  20.3130         95
 4.63   0.1164    502.7391    863.4894 -40.17      723.966     0.963     17.51707     0.954      2.263     77.59531  20.9007         96
 6.18   0.2738    499.0000    365.9927   0.00      307.821     0.843     17.51707     0.289      1.856     77.59531  21.8293         97
 5.71   0.0347    516.2209   1461.1857  26.90     2432.219     2.828     17.51707     1.249      7.902     77.61288  19.5850         98
 5.94   0.1916    502.4906   1309.9664  -3.30     439.8543     0.785     17.51707     0.499      2.269     77.60409  21.4417         99
 4.97   0.0538    514.1891   1310.0686  12.56      1568.47     1.453     17.51707     1.166      3.481     77.67435  20.0613        100
 7.49   0.1031    510.6530    165.5925   6.25     818.2049     1.008     17.51707     0.636      4.696     77.69191  20.7678        101
 4.21   0.1264    514.4960   1179.0830 -43.70     666.4157     1.130     17.51707     0.881      2.345     77.55135  20.9906        102
 6.59   0.1681    520.1537    641.3141 -60.97     501.3115     0.857     17.51707     0.594      3.480     77.61288  21.2997        103
 4.14   0.0507    541.0002    999.6945 -62.31     1663.399     1.250     17.51707     1.160      2.783     77.61288  19.9975        104
 3.50   0.0003    588.6879   1315.8539 -55.49     326388.5     2.187     17.51707     2.068      3.069     77.58652  14.2657        105
 3.68   0.0363    559.7887   1041.5302 -54.92     2323.895     1.373     17.51707     1.305      2.851     77.66557  19.6345        106
 3.60   0.0114    573.4073   1242.7402 -36.74     7424.896     1.543     17.51707     1.528      2.886     77.68313  18.3733        107
 3.50   0.0087    581.4571    144.8192 -63.56     9708.628     1.639     17.51707     1.537      2.856     77.63923  18.0821        108
 5.40   0.0545    571.8488     45.7987  65.71      1547.76     1.497     17.51707     1.163      4.108     77.68313  20.0757        109
 7.49   0.2139    565.9841    139.5040 -87.66     394.1744     0.791     17.51707     0.499      2.949     77.62167  21.5608        110
 5.53   0.0550    572.0419   1447.5493  18.02     1531.854     1.733     17.51707     1.229      4.887     77.64801  20.0870        111
 3.50   0.0087    583.0026    319.0012 -42.00     9747.356     1.607     17.51707     1.563      2.853     77.64801  18.0778        112
 3.50   0.0002    631.9539    483.1635 -57.26     403469.7     2.648     17.51707     2.496      3.713     77.65679  14.0355        113
 5.70   0.0599    575.7169   1336.6877 -52.10     1407.121     1.150     17.51707     1.091      3.916     77.57773  20.1792        114
 5.48   0.0175    597.8709    782.6802 -74.06      4804.17     2.429     17.51707     2.215      7.816     77.58652  18.8460        115
 8.26   0.1798    577.3349   1001.3214 -45.62     468.5094     0.573     17.51707     0.336      2.602     77.57773  21.3732        116
 5.50   0.1263    585.4738     75.7457 -67.57     667.0861     0.965     17.51707     0.954      3.283     77.59531  20.9895        117
 5.11   0.0870   1000.6995   1273.7892 -23.88     968.6085     1.129     17.51707     1.019      3.190     77.59531  20.5846        118
 6.74   0.0881   1598.4836    654.9836 -35.24     783.2465     1.182     17.51707     0.755      4.030     63.51396  20.8153        119
 6.67   0.1018   1595.9614    374.0274  41.76     768.6764     0.803     17.51707     0.781      3.395     72.05457  20.8356        120
 4.97   0.0492   1030.9441    302.6436  65.88      1712.28     1.852     17.51707     1.356      4.645     77.62167  19.9661        121
 3.50   0.0028    985.6684    558.4529 -53.00     29725.73     1.772     17.51707     1.703      2.874     77.59531  16.8672        122
 5.84   0.0614    987.3660    453.8745 -69.95     1371.911     1.342     17.51707     1.151      4.509     77.61288  20.2067        123
 5.99   0.0844    981.6799    797.8624 -17.31     997.9431     1.182     17.51707     0.957      3.930     77.57773  20.5522        124
 6.62   0.1828    979.0314    452.5188  89.17     461.1571     0.783     17.51707     0.500      2.921     77.62167  21.3904        125
 6.68   0.2559    965.8215    416.1882 -42.86     329.4143     0.760     17.51707     0.564      2.524     77.62167  21.7556        126
 7.04   0.1067    952.0219    654.1979   4.29     790.2908     0.935     17.51707     0.751      3.714     77.63045  20.8055        127
 6.46   0.3868    948.6243    445.2148 -17.64     217.9076     0.743     17.51707     0.450      2.172     77.62167  22.2043        128
 4.52   0.0412    939.9567   1066.9950 -68.97     2047.372     1.243     17.51707     1.183      2.860     77.65679  19.7720        129
 7.30   0.1398    939.0000    516.0090   0.00     602.8686     0.850     17.51707     0.289      2.473     77.59531  21.0994        130
 3.50   0.0055    930.5116   1178.4536 -45.18     15345.19     1.683     17.51707     1.645      2.919     77.58652  17.5851        131
 4.77   0.0658    929.1415   1322.3268  77.80     1281.026     1.175     17.51707     1.037      3.060     77.59531  20.2811        132
 5.03   0.0835    913.6597    838.4653 -71.80     1009.764     1.086     17.51707     0.994      3.127     77.60409  20.5394        133
 6.17   0.1422    913.1230   1000.8743  43.79     592.5603     0.820     17.51707     0.671      2.880     77.58652  21.1182        134
 8.68   0.1483    905.6592   1315.3329  45.32      568.419     0.580     17.51707     0.332      2.981     77.60409  21.1633        135
 3.50   0.0129    901.2381    302.7928 -69.84     6537.363     1.533     17.51707     1.467      2.748     77.63923  18.5115        136
 3.50   0.0003    882.8272    183.6641 -39.56     315976.6     3.801     17.51707     3.437      5.482     77.63923  14.3009        137
 5.65   0.0596    897.0488    538.2656   9.28     1414.014     1.371     17.51707     1.213      4.512     77.61288  20.1739        138
