#   1 KRON_RADIUS            Kron apertures in units of A or B                         
#   2 Y_IMAGE                Object position along y                                    [pixel]
#   3 MAG_BEST               Best of MAG_AUTO and MAG_ISOCOR                            [mag]
#   4 FLUX_BEST              Best of FLUX_AUTO and FLUX_ISOCOR                          [count]
#   5 X_IMAGE                Object position along x                                    [pixel]
#   6 THETA_IMAGE            Position angle (CCW/x)                                     [deg]
#   7 A_IMAGE                Profile RMS along major axis                               [pixel]
#   8 B_IMAGE                Profile RMS along minor axis                               [pixel]
#   9 MAGERR_BEST            RMS error for MAG_BEST                                     [mag]
#  10 NUMBER                 Running object number                                     
#  11 FLUXERR_BEST           RMS error for BEST flux                                    [count]
 3.50    182.2387  13.5727     617882.1   1107.8212 -39.89     4.912     4.532   0.0003          1     170.4837
 3.50     59.9974  16.3202     49192.71   1078.7438 -71.19     3.045     3.014   0.0024          2     109.6346
 3.80     53.4462  16.4582        43325     63.9191   1.33     5.337     4.876   0.0050          3     199.9098
 4.08     16.9279  18.6437     5787.775    985.4625 -87.34     4.427     2.434   0.0258          4     137.5224
 3.50     18.2198  19.0820     3865.515     91.5117 -89.07     2.184     2.115   0.0215          5     76.42053
 3.54     14.9005  18.0163      10315.6   1446.0903 -42.62     2.591     2.467   0.0097          6     92.31722
 8.06      7.3019  22.8420     121.1184   1466.3320 -43.42     0.563     0.340   0.3304          7     36.85326
 6.31      5.0664  21.6110     376.3416    144.8630 -83.56     0.803     0.681   0.1397          8     48.40279
 8.49      4.0000  22.9450     110.1506   1580.0042   0.00     0.836     0.289   0.4413          9     44.75812
 6.11     25.1080  20.6168      940.338    367.6416  25.91     1.770     1.749   0.1284         10     111.1723
 8.10     17.1741  21.5468     399.2919    385.0856 -33.22     1.396     0.608   0.2091         11     76.86356
 6.87     34.8687  21.5293     405.7673   1109.8557  64.00     1.403     0.661   0.1832         12     68.45188
 3.50     80.3081  16.3762     46720.17    537.8431 -75.15     2.976     2.935   0.0025         13     106.9697
 7.99     37.7023  21.6750     354.7982   1521.1277  69.14     0.976     0.690   0.2041         14     66.69319
 7.59     38.6061  21.8014     315.8296   1170.7451  18.03     0.754     0.451   0.1590         15     46.25047
 6.75     42.1870  22.0860     242.9922    915.0546  36.06     0.940     0.466   0.2067         16     46.25047
 0.00     44.2103  99.0000    -47.03296    564.4238  70.29     0.750     0.451  99.0000         17     32.96255
 4.53     75.2320  20.0938     1522.295    128.0787  -2.00     2.038     1.769   0.0635         18     88.94547
 3.50    121.9990  15.9474     69348.59    789.4222 -43.34     3.091     2.991   0.0017         19     109.7893
 8.19     80.6871  21.6406      366.238    422.8607 -69.48     1.831     0.583   0.2580         20     87.01583
 6.63     90.7526  20.6044     951.1104    377.0970  89.82     2.137     1.682   0.1482         21     129.7737
 4.32     96.7815  19.6145     2367.087     56.4106 -47.91     2.142     1.995   0.0424         22     92.31722
 3.50    193.6603  14.3607     299037.1    318.2503 -65.56     3.620     3.229   0.0004         23     123.7468
 6.51     97.9849  20.8889     731.8563    453.0418 -10.20     1.999     0.927   0.1359         24     91.57867
 3.96    170.5666  18.1787     8882.059    877.6066 -15.84     2.602     2.549   0.0129         25     105.5317
 3.50    162.5963  16.5664     39214.49   1468.6017 -50.03     2.946     2.848   0.0029         26     105.0479
 4.04    234.9475  16.2965     50279.14    403.9568 -44.17     6.716     5.681   0.0056         27     257.7094
 0.00    131.7585  99.0000    -44.26782   1511.9980  -0.09     0.691     0.428  99.0000         28     26.05919
 7.85    131.3489  22.3064     198.3514    417.6746  45.96     0.580     0.331   0.1967         29     35.92011
 6.89    165.6580  20.9948     663.8877   1446.0771 -42.49     1.415     1.198   0.1513         30     92.50094
 4.73    166.8963  21.2533     523.2015    104.9961 -74.33     1.508     1.309   0.1416         31     68.20341
 5.90    159.3234  25.3430     12.10046    537.6866  45.51     0.564     0.340   2.3965         32     26.70272
 6.19    192.8279  20.4098     1137.812   1350.5507 -34.85     2.995     1.451   0.1268         33     132.8763
 5.02    211.0280  18.9139     4512.558    827.9761  -4.84     4.227     2.650   0.0418         34     173.7388
 4.53    206.7372  19.9494     1738.681    549.4034 -48.39     2.105     1.879   0.0580         35     92.86728
 4.65    212.5210  20.0826     1538.064   1306.4326 -68.03     2.091     1.821   0.0665         36     94.13824
 5.40    230.1652  18.9485     4371.315    562.5081 -38.49     3.810     3.408   0.0500         37     201.1796
 6.08    209.1250  20.7733     814.0861    349.5309  12.30     2.423     1.452   0.1566         38      117.411
 3.50    260.0322  15.4920     105482.5    997.7167 -32.12     3.194     3.098   0.0012         39     113.5894
 7.81    202.8634  22.0108     260.4114    250.2823  19.02     0.953     0.674   0.2695         40     64.62468
 6.93    210.9014  21.3483     479.3829    684.3036 -59.48     1.540     1.020   0.2036         41     89.89475
 4.16    224.0377  19.6878     2212.561   1226.2937 -23.73     2.086     1.923   0.0423         42     86.23189
 7.03    221.8811  20.8393     766.0894    346.7842   7.61     2.225     1.519   0.1893         43     133.5136
 5.37    222.7527  21.3821     464.6649    775.3899 -54.77     1.809     1.449   0.2088         44     89.32639
 3.50    266.0527  15.6779     88888.91     67.7354 -43.78     3.128     3.024   0.0014         45     110.7132
 5.84    243.7053  19.9871     1679.348    113.0364 -77.12     2.694     1.956   0.0895         46     138.3839
 3.50    312.5910  14.1416     365894.8    439.6373 -48.13     3.406     3.276   0.0004         47     120.4092
 7.24    239.4138  21.5862     385.0468    838.7144 -80.72     1.844     0.858   0.2650         48     93.95773
 4.74    255.5604  19.0699     3908.855    613.4468 -39.07     3.019     2.554   0.0378         49     136.0329
 7.87    229.6942  25.1418     14.56335    538.6587 -43.29     0.568     0.338   2.7482         50     36.85326
 3.50    287.9363  17.2535     20826.54   1486.5533 -28.72     3.094     2.740   0.0055         51     105.0479
 8.46    252.1395  21.2056      546.712   1374.1746   9.83     0.995     0.700   0.1436         52     72.31131
 7.81    253.6793  22.5244     162.2714   1353.6771 -44.89     0.567     0.339   0.2404         53     35.92011
 3.50    282.1217  18.9538     4349.812   1522.4907 -38.99     2.404     2.334   0.0213         54     85.44076
 3.50    351.6739  14.2762     323248.4    891.0381 -50.77     3.498     3.322   0.0004         55     122.9209
 3.50    318.9506  16.0879     60930.61    905.7338 -52.66     3.057     2.975   0.0019         56     108.8576
 3.50    303.2986  17.5866     15324.07    201.9461  81.04     2.728     2.688   0.0069         57     97.85216
 4.90    289.9463  19.9896     1675.573    515.3391  73.50     2.317     2.098   0.0724         58     111.7815
 3.50    351.7511  14.3158     311663.2   1346.0488 -34.10     3.424     3.249   0.0004         59     120.1269
 4.32    294.1810  19.8665     1876.714   1327.9517 -78.21     2.116     1.894   0.0517         60     89.32639
 5.65    298.0721  20.5082     1039.222   1413.6317 -45.20     2.558     1.413   0.1155         61     110.5598
 3.50    322.3132  18.0617     9892.523    697.5565  78.95     2.545     2.527   0.0101         62     91.94868
 6.17    302.6077  21.2668     516.7677    563.7846  -2.74     1.690     1.453   0.2110         63     100.4209
 4.52    346.6619  18.3811     7371.649    867.2843  27.15     2.916     2.612   0.0143         64     96.91774
 8.03    308.3838  21.1075     598.4237     86.2233  87.87     1.279     0.996   0.1692         65     93.23218
 5.75    327.8482  19.9433     1748.598    595.7621 -36.78     2.316     2.180   0.0829         66     133.5136
 7.13    323.0114  20.9698     679.3021    640.0057  69.43     1.493     1.018   0.1446         67     90.45954
 7.88    321.4943  21.1978     550.6487    643.4767  50.10     1.843     0.825   0.1997         68     101.2627
 4.04    355.9810  18.6362     5827.802    432.0928  80.61     2.694     2.476   0.0200         69     107.1283
 7.19    331.8545  21.4185     449.3463     93.1126  72.97     1.157     0.864   0.1814         70     75.07579
 3.66    368.6590  17.9903     10564.85    760.9850 -48.40     3.229     2.592   0.0113         71     109.4796
 7.55    329.5132  22.3478     190.9279   1546.5171  -0.14     1.090     0.500   0.3298         72     57.97803
 6.66    335.8877  21.5914     383.2229   1440.3259   8.40     1.151     0.720   0.1755         73     61.94198
 5.33    349.9268  20.8884      732.204     54.7275 -33.05     1.707     1.422   0.1270         74     85.63923
 4.08    367.4095  19.0432     4005.915    442.9427  73.16     2.468     2.457   0.0280         75     103.4192
 3.50    395.3917  16.2694     51553.25    231.5978 -62.86     3.045     2.976   0.0023         76     108.2319
 4.55    361.4847  20.0418     1596.959   1500.6577 -19.24     2.057     1.898   0.0633         77      93.0499
 5.79    361.1364  21.8524     301.3208   1034.1516  63.30     1.358     0.944   0.2467         78     68.45188
 7.96    359.5301  21.8192     310.6783    533.7626 -62.94     1.324     0.535   0.2419         79     69.19193
 7.34    362.5314  22.3663     187.7007   1415.3390 -89.56     0.920     0.473   0.2900         80     50.12585
 5.59    381.1294  23.6446      57.8324      1.9302  89.15     2.381     0.903   1.2993         81     69.19193
 5.49    372.8766  21.3077     497.6393    992.5557 -78.52     1.555     1.090   0.1614         82     73.93649
 6.97    372.0318  21.5599     394.4762     70.7653 -55.38     1.399     0.754   0.2035         83     73.93649
 3.83    398.3482  18.2612     8232.406    354.7326  46.69     2.574     2.564   0.0134         84     101.5974
 3.62    397.4170  18.4483     6929.163   1461.3718 -31.94     2.577     2.377   0.0145         85     92.50094
 6.50    370.0134  22.3883     183.9418    209.0098  -0.68     0.615     0.606   0.2333         86     39.52071
 8.08    372.8884  21.4604     432.3601   1084.1632 -12.05     1.030     0.665   0.1738         87     69.19193
 3.50    419.8457  16.3676     47095.43    433.5670 -54.32     2.911     2.899   0.0024         88     104.7242
 3.73    393.9712  19.9100     1803.005   1088.8979 -52.36     1.987     1.909   0.0458         89     75.97493
 5.12    412.5887  21.3453     480.6849      2.3713  89.00     3.544     1.277   0.2086         90     92.31722
 3.50    415.8865  17.1678     22536.95    837.5073 -42.69     2.795     2.687   0.0048         91     99.23042
 7.66    382.1581  22.1001     239.8511     67.4952 -36.04     0.910     0.678   0.2780         92     61.39137
 7.63    383.7711  22.8019     125.6773      9.8583  11.59     1.358     0.557   0.2995         93     34.65901
 7.90    397.2685  21.0421     635.5813    626.1052 -77.88     1.385     0.808   0.1470         94     86.03479
 3.50    424.4074  19.0434     4005.444    926.5994 -74.38     2.411     2.207   0.0226         95     83.43011
 3.50    438.1793  17.4936     16694.49    252.3252  -7.72     2.790     2.705   0.0065         96     99.74236
 3.50    461.3314  15.1388     146046.2    807.6804 -41.34     3.178     3.081   0.0008         97     113.5894
 6.42    420.9558  20.6350     924.6981    159.3079  43.28     2.158     1.705   0.1491         98     126.9968
 5.20    433.1000  20.3839     1165.311   1422.1897  69.53     1.816     1.716   0.0887         99     95.21415
 4.50    450.5894  18.7214     5388.085     21.4207  29.10     2.486     2.460   0.0231        100     114.7788
 5.81    426.7534  21.3336      485.912   1180.0172  34.23     1.461     0.792   0.1444        101     64.62468
 4.72    468.1039  18.3597      7518.35    851.1541  23.76     7.117     2.572   0.0302        102      208.799
 6.89    434.3987  21.4425     439.5319    150.7365   5.03     1.835     1.044   0.2435        103      98.5437
 8.49    431.0077  21.5843     385.7205    720.1688  54.18     0.930     0.469   0.1607        104     57.09282
 6.20    444.9543  20.5033     1043.936    122.5157  59.24     1.881     1.549   0.1139        105     109.4796
 4.06    457.9190  18.6144     5946.408     34.5368 -17.68     2.654     2.427   0.0194        106     106.4925
 5.31    440.3495  21.3729     468.6455    305.9941   4.53     1.300     1.115   0.1528        107     65.92511
 5.33    447.8613  20.7798     809.2147    885.2292   1.04     1.961     1.221   0.1149        108     85.63923
 4.20    463.9481  19.8773     1858.144    468.8448  47.85     2.214     1.898   0.0520        109     88.94547
 5.99    461.4201  21.4353     442.4713   1096.9908  70.01     1.411     1.077   0.1859        110     75.75114
 8.24    452.3464  22.2284     213.1321   1534.3280 -45.75     0.581     0.331   0.1924        111     37.76335
 3.50    478.1534  19.4170     2839.335    923.1714 -42.86     2.291     2.063   0.0299        112     78.17756
 3.63    472.2752  19.6935     2200.819    735.0540  13.65     2.058     1.947   0.0374        113     75.75114
 5.14    471.5919  20.1243     1480.052    254.7253   9.05     1.980     1.869   0.0750        114     102.2636
 5.65    455.3133  24.0496     39.82458   1227.3334 -44.02     0.568     0.338   0.6926        115     25.39935
 3.98    596.9890  18.5080     6558.351    782.9262 -87.82     3.615     3.453   0.0239        116     144.6226
 4.31    478.5005  20.5257     1022.588   1277.1139 -65.71     2.064     1.726   0.0892        117     84.03835
 7.45    462.3968  22.0181     258.6859    722.7952 -12.80     1.120     0.417   0.2202        118      52.4431
 3.50    512.7224  17.7353      13361.9   1303.0808   1.00     3.397     2.606   0.0087        119     107.2867
 4.37    533.1533  17.1859     22163.49    519.0990  25.24     4.785     4.361   0.0101        120     206.8384
 6.02    495.6913  19.4359      2790.25     82.7940 -76.01     2.777     2.530   0.0642        121     164.9157
 3.92    483.9861  20.3879     1161.047   1070.6866 -32.20     1.908     1.620   0.0665        122     71.12774
 4.69    495.7628  19.6720     2244.896   1186.4955 -10.67     3.121     2.244   0.0621        123     128.3266
 6.94    489.6826  21.0884      609.014    839.3377  48.25     1.545     1.140   0.1695        124     95.03568
 4.65    502.2021  21.0127     652.9948    863.7810 -39.11     1.826     1.368   0.1264        125     75.97493
 5.54    504.4456  20.3681     1182.333    763.2783 -18.82     2.324     1.464   0.0972        126     105.8529
 4.30    515.7267  19.3223      3098.04   1461.0349  21.85     4.019     2.030   0.0446        127     127.1304
 8.21    499.3254  21.8040     315.0693    366.3373 -44.48     0.576     0.334   0.1302        128     37.76335
 3.50    588.2134  14.2382     334743.6   1315.9587 -42.43     3.351     3.219   0.0004        129     118.9909
 8.43    510.5000  21.0244     646.0135    163.0072 -31.60     1.377     0.905   0.1642        130      97.6785
 7.83    509.5540  21.1649     567.6195    166.5013  60.62     1.072     0.826   0.1466        131     76.64236
 6.71    509.5146  22.2896     201.4471    454.2385 -89.84     0.978     0.719   0.3110        132     57.68447
 6.10    513.6796  21.0792     614.2207   1179.5034   5.85     1.539     1.119   0.1461        133     82.61214
 6.29    518.5699  21.1982     550.4614    642.8600 -29.67     1.255     0.759   0.1265        134     64.09712
 3.53    540.5427  19.8772     1858.236   1000.0333 -48.23     2.151     1.744   0.0416        135     71.12774
 8.69    536.4771  22.0483     251.5803    402.4881 -37.00     0.500     0.499   0.1948        136     45.13583
 3.52    559.1711  19.5966      2406.28   1041.8425 -30.51     2.139     1.954   0.0336        137      74.3943
 3.56    572.9426  18.3748     7414.708   1242.7992 -27.79     2.522     2.450   0.0133        138     91.02083
 3.50    631.4161  13.9925     419758.1    483.3755 -44.03     3.483     3.337   0.0003        139     123.7468
 3.83    580.9929  18.0743     9778.842    145.0090 -71.13     2.633     2.498   0.0112        140     101.2627
 3.54    582.3829  18.0800     9727.682    319.3545 -38.03     2.643     2.519   0.0106        141     95.03568
 4.74    571.4081  20.0660     1561.746     45.8489  54.95     2.361     1.903   0.0721        142      103.747
 0.00    550.7809  99.0000    -8.294556    143.9820  -0.87     0.655     0.414  99.0000        143     23.30804
 4.61    571.8535  20.0480     1587.782   1447.7355  40.13     2.426     1.906   0.0698        144     102.0975
 8.47    565.4221  21.4286     445.1925    139.1938 -84.40     1.745     0.805   0.2531        145      103.747
 6.35    575.3669  20.1609     1430.934   1336.4686 -61.19     2.361     1.801   0.0591        146     77.86434
 5.78    577.0038  20.8738      742.118   1002.5832  -1.68     1.329     1.013   0.1013        147     69.19193
 4.94    584.7218  20.9203     711.0225     75.8023  73.68     1.554     1.136   0.1026        148     67.20037
 3.50    605.4258  20.4197     1127.471    586.3757 -89.35     1.953     1.583   0.0612        149     63.56519
 3.50    985.2014  16.8526     30126.77    558.6801 -34.53     2.937     2.856   0.0038        150     104.7242
 5.26   1598.7227  21.2998     501.2707    655.0228 -33.96     1.480     1.007   0.0780        151     35.98721
 6.25   1595.9941  20.2020     1377.843    652.7838 -22.73     1.121     0.683   0.0420        152     53.28978
 0.00   1599.4045  99.0000    -10.04443     20.3169 -17.39     1.692     0.641  99.0000        153     39.94798
 8.91   1594.3894  21.8046     314.8989   1387.1508  19.77     0.757     0.441   0.1842        154     53.40544
 4.10   1584.9974  20.3004     1258.508   1108.8921  -5.70     1.845     1.581   0.0622        155     72.07615
 5.03   1585.4873  23.3201     77.97668   1068.7311  53.74     1.360     0.225   0.3976        156     28.54641
 3.50   1566.8105  19.8228      1953.71     22.0706  39.44     2.151     1.984   0.0415        157     74.62215
 3.54   1565.8353  20.1163     1490.995    784.5983  73.81     2.207     1.782   0.0525        158     72.07615
 3.50   1558.1235  16.0887     60884.05    487.7611 -84.10     2.956     2.930   0.0019        159     106.8109
 3.50   1552.8148  17.0483     25158.68    682.2031 -28.16     4.833     4.349   0.0072        160      165.942
 5.03    860.5712  20.5794     973.3281   1157.2614  64.74     1.678     1.440   0.0903        161     80.95142
 5.33    858.9348  20.7919     800.2797   1339.6710 -55.93     1.493     1.142   0.0981        162     72.31131
 7.29    888.8391  21.0465     633.0098    326.1275 -21.70     1.643     1.358   0.1936        163     112.8396
 7.89    857.8146  24.5837     24.35217    144.3609 -72.36     0.763     0.442   2.1270        164     47.69614
 7.36    845.2385  21.0572      626.764   1206.7559  81.58     1.556     1.285   0.0865        165     49.93425
 6.71    845.2845  20.9923      665.385   1064.4720 -12.05     1.499     1.313   0.1586        166     97.15569
 5.66    843.5905  20.2610     1304.946   1106.4135  36.83     1.834     1.672   0.0857        167     102.9255
 5.49    838.0015  19.5904     2420.085   1247.0173 -49.58     2.417     2.125   0.0579        168      129.118
 5.67    836.8416  20.4280      1118.96    299.0053 -59.74     2.103     1.772   0.1100        169       113.29
